Date [s],Average:Temperature (Study 01 - Particles) [K],Max:Particle Z-Coordinate (Study 01 - Particles) [m],Min:Absolute Translational Velocity (Study 01 - Particles) [m/s]
0.0015,514.065,0.00489686,0.000283008
0.0016,515.109,0.0048968,0.000861044
0.0017,516.105,0.00489669,0.00142766
0.0018,517.066,0.00489652,0.00198354
0.0019,517.998,0.00489629,0.0025282
0.002,518.904,0.00489601,0.00306121
0.0021,519.788,0.00489568,0.00358342
0.0022,520.652,0.0048953,0.00409446
0.0023,521.496,0.00489486,0.00459402
0.0024,522.324,0.00489438,0.00508294
0.0025,523.135,0.00489385,0.00556093
0.0026,523.931,0.00489327,0.00602775
0.0027,524.713,0.00489264,0.00648422
0.0028,525.481,0.00489197,0.00693012
0.0029,526.236,0.00489125,0.00736557
0.003,526.978,0.0048905,0.00779039
0.0031,527.708,0.0048897,0.00820539
0.0032,528.427,0.00488886,0.00861038
0.0033,529.135,0.00488798,0.00900523
0.0034,529.833,0.00488706,0.00939069
0.0035,530.52,0.0048861,0.00976662
0.0036,531.197,0.0048851,0.0101329
0.0037,531.865,0.00488407,0.0104903
0.0038,532.524,0.004883,0.0108387
0.0039,533.173,0.0048819,0.0111779
0.004,533.814,0.00488077,0.0115087
0.0041,534.447,0.0048796,0.011831
0.0042,535.071,0.0048784,0.0121448
0.0043,535.688,0.00487717,0.0124505
0.0044,536.297,0.00487591,0.0127483
0.0045,536.898,0.00487462,0.0130383
0.0046,537.492,0.00487331,0.0133203
0.0047,538.079,0.00487196,0.0135951
0.0048,538.659,0.00487059,0.0138626
0.0049,539.231,0.00486919,0.0141227
0.005,539.798,0.00486776,0.0143759
0.0051,540.358,0.00486631,0.0146224
0.0052,540.911,0.00486484,0.0148619
0.0053,541.459,0.00486334,0.0150951
0.0054,542,0.00486182,0.0153219
0.0055,542.535,0.00486028,0.0155424
0.0056,543.065,0.00485871,0.0157569
0.0057,543.589,0.00485713,0.0159655
0.0058,544.107,0.00485552,0.0161683
0.0059,544.62,0.00485389,0.0163653
0.006,545.127,0.00485225,0.016557
0.0061,545.63,0.00485058,0.0167433
0.0062,546.127,0.0048489,0.0169243
0.0063,546.619,0.0048472,0.0171003
0.0064,547.106,0.00484548,0.0172713
0.0065,547.588,0.00484374,0.0174374
0.0066,548.066,0.00484199,0.0175989
0.0067,548.539,0.00484022,0.0177558
0.0068,549.007,0.00483844,0.0179081
0.0069,549.471,0.00483664,0.0180562
0.007,549.931,0.00483483,0.0182001
0.0071,550.386,0.004833,0.0183398
0.0072,550.836,0.00483116,0.0184754
0.0073,551.283,0.00482931,0.0186073
0.0074,551.725,0.00482744,0.0187353
0.0075,552.164,0.00482556,0.0188595
0.0076,552.598,0.00482367,0.0189802
0.0077,553.029,0.00482176,0.0190975
0.0078,553.455,0.00481985,0.0192112
0.0079,553.878,0.00481792,0.0193218
0.008,554.297,0.00481598,0.0194291
0.0081,554.712,0.00481404,0.0195332
0.0082,555.123,0.00481208,0.0196343
0.0083,555.532,0.00481011,0.0197325
0.0084,555.936,0.00480813,0.0198278
0.0085,556.337,0.00480614,0.0199203
0.0086,556.735,0.00480415,0.0200101
0.0087,557.129,0.00480214,0.0200973
0.0088,557.52,0.00480013,0.0201819
0.0089,557.907,0.00479811,0.020264
0.009,558.292,0.00479607,0.0203437
0.0091,558.673,0.00479404,0.020421
0.0092,559.051,0.00479199,0.020496
0.0093,559.426,0.00478994,0.0205689
0.0094,559.798,0.00478788,0.0206395
0.0095,560.166,0.00478581,0.0207081
0.0096,560.532,0.00478373,0.0207747
0.0097,560.895,0.00478166,0.0208392
0.0098,561.255,0.00477957,0.0209019
0.0099,561.612,0.00477747,0.0209627
0.01,561.966,0.00477537,0.0210217
0.0101,562.318,0.00477327,0.0210789
0.0102,562.666,0.00477116,0.0211345
0.0103,563.012,0.00476904,0.0211883
0.0104,563.356,0.00476692,0.0212406
0.0105,563.696,0.0047648,0.0212913
0.0106,564.034,0.00476266,0.0213405
0.0107,564.369,0.00476053,0.0213882
0.0108,564.702,0.00475839,0.0214345
0.0109,565.032,0.00475624,0.0214794
0.011,565.36,0.00475409,0.021523
0.0111,565.685,0.00475194,0.0215652
0.0112,566.008,0.00474978,0.0216062
0.0113,566.328,0.00474761,0.0216458
0.0114,566.646,0.00474545,0.0216841
0.0115,566.961,0.00474328,0.0217214
0.0116,567.275,0.0047411,0.0217575
0.0117,567.585,0.00473893,0.0217925
0.0118,567.894,0.00473675,0.0218265
0.0119,568.2,0.00473456,0.0218595
0.012,568.504,0.00473237,0.0218914
0.0121,568.806,0.00473018,0.0219224
0.0122,569.105,0.00472799,0.0219525
0.0123,569.402,0.00472579,0.0219816
0.0124,569.698,0.00472359,0.0220099
0.0125,569.991,0.00472139,0.0220373
0.0126,570.282,0.00471919,0.0220639
0.0127,570.57,0.00471698,0.0220897
0.0128,570.857,0.00471477,0.0221148
0.0129,571.142,0.00471255,0.022139
0.013,571.424,0.00471034,0.0221626
0.0131,571.705,0.00470812,0.0221854
0.0132,571.984,0.0047059,0.0222075
0.0133,572.26,0.00470368,0.022229
0.0134,572.535,0.00470146,0.0222498
0.0135,572.808,0.00469923,0.02227
0.0136,573.079,0.004697,0.0222895
0.0137,573.348,0.00469477,0.0223085
0.0138,573.615,0.00469254,0.0223269
0.0139,573.88,0.00469031,0.0223448
0.014,574.143,0.00468807,0.0223621
0.0141,574.405,0.00468583,0.0223789
0.0142,574.665,0.0046836,0.0223952
0.0143,574.922,0.00468136,0.0224109
0.0144,575.179,0.00467911,0.0224263
0.0145,575.433,0.00467687,0.0224411
0.0146,575.686,0.00467463,0.0224555
0.0147,575.936,0.00467238,0.0224695
0.0148,576.186,0.00467013,0.022483
0.0149,576.433,0.00466788,0.0224961
0.015,576.679,0.00466563,0.0225088
0.0151,576.923,0.00466338,0.0225212
0.0152,577.165,0.00466113,0.0225331
0.0153,577.406,0.00465888,0.0225447
0.0154,577.645,0.00465662,0.022556
0.0155,577.883,0.00465436,0.0225669
0.0156,578.118,0.00465211,0.0225775
0.0157,578.353,0.00464985,0.0225877
0.0158,578.585,0.00464759,0.0225977
0.0159,578.816,0.00464533,0.0226073
0.016,579.046,0.00464307,0.0226167
0.0161,579.274,0.0046408,0.0226257
0.0162,579.5,0.00463854,0.0226345
0.0163,579.725,0.00463628,0.022643
0.0164,579.949,0.00463401,0.0226513
0.0165,580.171,0.00463175,0.0226593
0.0166,580.391,0.00462948,0.0226671
0.0167,580.61,0.00462721,0.0226746
0.0168,580.828,0.00462495,0.0226819
0.0169,581.044,0.00462268,0.022689
0.017,581.258,0.00462041,0.0226959
0.0171,581.472,0.00461814,0.0227025
0.0172,581.683,0.00461587,0.022709
0.0173,581.894,0.0046136,0.0227152
0.0174,582.103,0.00461132,0.0227213
0.0175,582.31,0.00460905,0.0227272
0.0176,582.517,0.00460678,0.0227329
0.0177,582.722,0.00460451,0.0227384
0.0178,582.925,0.00460223,0.0227438
0.0179,583.127,0.00459996,0.022749
0.018,583.328,0.00459768,0.022754
0.0181,583.528,0.00459541,0.0227589
0.0182,583.726,0.00459313,0.0227637
0.0183,583.923,0.00459085,0.0227683
0.0184,584.118,0.00458858,0.0227727
0.0185,584.313,0.0045863,0.022777
0.0186,584.506,0.00458402,0.0227812
0.0187,584.698,0.00458174,0.0227853
0.0188,584.888,0.00457947,0.0227892
0.0189,585.077,0.00457719,0.022793
0.019,585.266,0.00457491,0.0227967
0.0191,585.452,0.00457263,0.0228003
0.0192,585.638,0.00457035,0.0228038
0.0193,585.822,0.00456807,0.0228072
0.0194,586.005,0.00456579,0.0228105
0.0195,586.188,0.0045635,0.0228136
0.0196,586.368,0.00456122,0.0228167
0.0197,586.548,0.00455894,0.0228197
0.0198,586.726,0.00455666,0.0228226
0.0199,586.904,0.00455438,0.0228254
0.02,587.08,0.00455209,0.0228281
0.0201,587.255,0.00454981,0.0228307
0.0202,587.429,0.00454753,0.0228333
0.0203,587.602,0.00454524,0.0228358
0.0204,587.773,0.00454296,0.0228382
0.0205,587.944,0.00454068,0.0228405
0.0206,588.113,0.00453839,0.0228427
0.0207,588.282,0.00453611,0.0228449
0.0208,588.449,0.00453382,0.022847
0.0209,588.615,0.00453154,0.0228491
0.021,588.78,0.00452925,0.0228511
0.0211,588.944,0.00452697,0.022853
0.0212,589.107,0.00452468,0.0228549
0.0213,589.269,0.0045224,0.0228567
0.0214,589.43,0.00452011,0.0228585
0.0215,589.59,0.00451782,0.0228602
0.0216,589.748,0.00451554,0.0228619
0.0217,589.906,0.00451325,0.0228635
0.0218,590.063,0.00451097,0.022865
0.0219,590.219,0.00450868,0.0228665
0.022,590.373,0.00450639,0.022868
0.0221,590.527,0.00450411,0.0228694
0.0222,590.68,0.00450182,0.0228708
0.0223,590.832,0.00449953,0.0228721
0.0224,590.982,0.00449724,0.0228734
0.0225,591.132,0.00449496,0.0228746
0.0226,591.281,0.00449267,0.0228758
0.0227,591.429,0.00449038,0.022877
0.0228,591.576,0.00448809,0.0228781
0.0229,591.722,0.00448581,0.0228792
0.023,591.867,0.00448352,0.0228803
0.0231,592.011,0.00448123,0.0228813
0.0232,592.155,0.00447894,0.0228823
0.0233,592.297,0.00447665,0.0228833
0.0234,592.438,0.00447437,0.0228842
0.0235,592.579,0.00447208,0.0228851
0.0236,592.718,0.00446979,0.022886
0.0237,592.857,0.0044675,0.0228869
0.0238,592.995,0.00446521,0.0228877
0.0239,593.132,0.00446292,0.0228885
0.024,593.268,0.00446063,0.0228893
0.0241,593.403,0.00445834,0.02289
0.0242,593.537,0.00445605,0.0228908
0.0243,593.671,0.00445377,0.0228915
0.0244,593.803,0.00445148,0.0228922
0.0245,593.935,0.00444919,0.0228928
0.0246,594.066,0.0044469,0.0228935
0.0247,594.196,0.00444461,0.0228941
0.0248,594.325,0.00444232,0.0228947
0.0249,594.454,0.00444003,0.0228953
0.025,594.581,0.00443774,0.0228959
0.0251,594.708,0.00443545,0.0228965
0.0252,594.834,0.00443316,0.022897
0.0253,594.959,0.00443087,0.0228975
0.0254,595.084,0.00442858,0.022898
0.0255,595.207,0.00442629,0.0228985
0.0256,595.33,0.004424,0.022899
0.0257,595.452,0.00442171,0.0228994
0.0258,595.573,0.00441942,0.0228999
0.0259,595.694,0.00441713,0.0229003
0.026,595.814,0.00441484,0.0229007
0.0261,595.933,0.00441255,0.0229011
0.0262,596.051,0.00441026,0.0229015
0.0263,596.168,0.00440797,0.0229019
0.0264,596.285,0.00440568,0.0229023
0.0265,596.401,0.00440339,0.0229027
0.0266,596.516,0.0044011,0.022903
0.0267,596.63,0.00439881,0.0229033
0.0268,596.744,0.00439652,0.0229037
0.0269,596.857,0.00439423,0.022904
0.027,596.969,0.00439194,0.0229043
0.0271,597.081,0.00438965,0.0229046
0.0272,597.192,0.00438736,0.0229049
0.0273,597.302,0.00438507,0.0229052
0.0274,597.411,0.00438278,0.0229054
0.0275,597.52,0.00438049,0.0229057
0.0276,597.628,0.0043782,0.022906
0.0277,597.736,0.00437591,0.0229062
0.0278,597.842,0.00437362,0.0229064
0.0279,597.948,0.00437132,0.0229067
0.028,598.054,0.00436903,0.0229069
0.0281,598.158,0.00436674,0.0229071
0.0282,598.262,0.00436445,0.0229073
0.0283,598.366,0.00436216,0.0229075
0.0284,598.468,0.00435987,0.0229077
0.0285,598.57,0.00435758,0.0229079
0.0286,598.672,0.00435529,0.0229081
0.0287,598.773,0.004353,0.0229083
0.0288,598.873,0.00435071,0.0229085
0.0289,598.972,0.00434842,0.0229087
0.029,599.071,0.00434613,0.0229088
0.0291,599.169,0.00434384,0.022909
0.0292,599.267,0.00434154,0.0229091
0.0293,599.364,0.00433925,0.0229093
0.0294,599.46,0.00433696,0.0229094
0.0295,599.556,0.00433467,0.0229096
0.0296,599.651,0.00433238,0.0229097
0.0297,599.745,0.00433009,0.0229098
0.0298,599.839,0.0043278,0.02291
0.0299,599.933,0.00432551,0.0229101
0.03,600.025,0.00432322,0.0229102
0.0301,600.118,0.00432093,0.0229103
0.0302,600.209,0.00431863,0.0229105
0.0303,600.3,0.00431634,0.0229106
0.0304,600.39,0.00431405,0.0229107
0.0305,600.48,0.00431176,0.0229108
0.0306,600.57,0.00430947,0.0229109
0.0307,600.658,0.00430718,0.022911
0.0308,600.746,0.00430489,0.0229111
0.0309,600.834,0.0043026,0.0229112
0.031,600.921,0.00430031,0.0229113
0.0311,601.007,0.00429802,0.0229113
0.0312,601.093,0.00429572,0.0229114
0.0313,601.179,0.00429343,0.0229115
0.0314,601.263,0.00429114,0.0229116
0.0315,601.348,0.00428885,0.0229117
0.0316,601.431,0.00428656,0.0229117
0.0317,601.515,0.00428427,0.0229118
0.0318,601.597,0.00428198,0.0229119
0.0319,601.68,0.00427968,0.0229119
0.032,601.761,0.00427739,0.022912
0.0321,601.842,0.0042751,0.0229121
0.0322,601.923,0.00427281,0.0229121
0.0323,602.003,0.00427052,0.0229122
0.0324,602.083,0.00426823,0.0229123
0.0325,602.162,0.00426594,0.0229123
0.0326,602.24,0.00426365,0.0229124
0.0327,602.318,0.00426136,0.0229124
0.0328,602.396,0.00425906,0.0229125
0.0329,602.473,0.00425677,0.0229125
0.033,602.55,0.00425448,0.0229126
0.0331,602.626,0.00425219,0.0229126
0.0332,602.701,0.0042499,0.0229127
0.0333,602.776,0.00424761,0.0229126
0.0334,602.851,0.00424532,0.0229126
0.0335,602.925,0.00424303,0.0229126
0.0336,602.999,0.00424074,0.0229126
0.0337,603.072,0.00423844,0.0229126
0.0338,603.145,0.00423615,0.0229126
0.0339,603.217,0.00423386,0.0229126
0.034,603.289,0.00423157,0.0229126
0.0341,603.361,0.00422928,0.0229126
0.0342,603.432,0.00422699,0.0229126
0.0343,603.502,0.0042247,0.0229126
0.0344,603.572,0.0042224,0.0229126
0.0345,603.642,0.00422011,0.0229126
0.0346,603.711,0.00421782,0.0229126
0.0347,603.78,0.00421553,0.0229126
0.0348,603.848,0.00421324,0.0229126
0.0349,603.916,0.00421095,0.0229126
0.035,603.983,0.00420866,0.0229126
0.0351,604.05,0.00420637,0.0229126
0.0352,604.117,0.00420407,0.0229126
0.0353,604.183,0.00420178,0.0229126
0.0354,604.249,0.00419949,0.0229125
0.0355,604.314,0.0041972,0.0229125
0.0356,604.379,0.00419491,0.0229125
0.0357,604.444,0.00419262,0.0229125
0.0358,604.508,0.00419033,0.0229125
0.0359,604.571,0.00418804,0.0229125
0.036,604.635,0.00418574,0.0229125
0.0361,604.698,0.00418345,0.0229125
0.0362,604.76,0.00418116,0.0229125
0.0363,604.822,0.00417887,0.0229125
0.0364,604.884,0.00417658,0.0229125
0.0365,604.945,0.00417429,0.0229125
0.0366,605.006,0.004172,0.0229125
0.0367,605.067,0.00416971,0.0229125
0.0368,605.127,0.00416741,0.0229125
0.0369,605.187,0.00416512,0.0229125
0.037,605.246,0.00416283,0.0229125
0.0371,605.305,0.00416054,0.0229125
0.0372,605.364,0.00415825,0.0229125
0.0373,605.422,0.00415596,0.0229125
0.0374,605.48,0.00415367,0.0229125
0.0375,605.537,0.00415138,0.0229125
0.0376,605.594,0.00414908,0.0229125
0.0377,605.651,0.00414679,0.0229125
0.0378,605.708,0.0041445,0.0229125
0.0379,605.764,0.00414221,0.0229125
0.038,605.819,0.00413992,0.0229125
0.0381,605.875,0.00413763,0.0229125
0.0382,605.93,0.00413534,0.0229125
0.0383,605.985,0.00413305,0.0229125
0.0384,606.039,0.00413075,0.0229125
0.0385,606.093,0.00412846,0.0229125
0.0386,606.147,0.00412617,0.0229125
0.0387,606.2,0.00412388,0.0229125
0.0388,606.253,0.00412159,0.0229125
0.0389,606.305,0.0041193,0.0229125
0.039,606.358,0.00411701,0.0229125
0.0391,606.41,0.00411472,0.0229125
0.0392,606.461,0.00411242,0.0229125
0.0393,606.513,0.00411013,0.0229125
0.0394,606.564,0.00410784,0.0229125
0.0395,606.614,0.00410555,0.0229125
0.0396,606.665,0.00410326,0.0229125
0.0397,606.715,0.00410097,0.0229125
0.0398,606.764,0.00409868,0.0229125
0.0399,606.814,0.00409639,0.0229125
0.04,606.863,0.00409409,0.0229125
0.0401,606.912,0.0040918,0.0229125
0.0402,606.96,0.00408951,0.0229125
0.0403,607.008,0.00408722,0.0229125
0.0404,607.056,0.00408493,0.0229125
0.0405,607.104,0.00408264,0.0229125
0.0406,607.151,0.00408035,0.0229125
0.0407,607.198,0.00407805,0.0229125
0.0408,607.244,0.00407576,0.0229125
0.0409,607.291,0.00407347,0.0229125
0.041,607.337,0.00407118,0.0229125
0.0411,607.382,0.00406889,0.0229125
0.0412,607.428,0.0040666,0.0229125
0.0413,607.473,0.00406431,0.0229125
0.0414,607.518,0.00406202,0.0229125
0.0415,607.563,0.00405973,0.0229125
0.0416,607.607,0.00405743,0.0229125
0.0417,607.651,0.00405514,0.0229125
0.0418,607.695,0.00405285,0.0229125
0.0419,607.738,0.00405056,0.0229125
0.042,607.781,0.00404827,0.0229125
0.0421,607.824,0.00404598,0.0229125
0.0422,607.867,0.00404369,0.0229125
0.0423,607.91,0.00404139,0.0229125
0.0424,607.952,0.0040391,0.0229125
0.0425,607.994,0.00403681,0.0229125
0.0426,608.035,0.00403452,0.0229125
0.0427,608.076,0.00403223,0.0229125
0.0428,608.118,0.00402994,0.0229125
0.0429,608.158,0.00402765,0.0229125
0.043,608.199,0.00402536,0.0229125
0.0431,608.239,0.00402307,0.0229125
0.0432,608.279,0.00402077,0.0229125
0.0433,608.319,0.00401848,0.0229125
0.0434,608.359,0.00401619,0.0229124
0.0435,608.398,0.0040139,0.0229124
0.0436,608.437,0.00401161,0.0229124
0.0437,608.476,0.00400932,0.0229124
0.0438,608.514,0.00400703,0.0229124
0.0439,608.553,0.00400474,0.0229124
0.044,608.591,0.00400244,0.0229124
0.0441,608.628,0.00400015,0.0229124
0.0442,608.666,0.00399786,0.0229124
0.0443,608.703,0.00399557,0.0229124
0.0444,608.74,0.00399328,0.0229124
0.0445,608.777,0.00399099,0.0229123
0.0446,608.814,0.0039887,0.0229123
0.0447,608.85,0.00398641,0.0229123
0.0448,608.886,0.00398411,0.0229123
0.0449,608.922,0.00398182,0.0229122
0.045,608.958,0.00397953,0.0229122
0.0451,608.993,0.00397724,0.0229122
0.0452,609.029,0.00397495,0.0229122
0.0453,609.064,0.00397266,0.0229121
0.0454,609.099,0.00397037,0.0229121
0.0455,609.133,0.00396808,0.0229121
0.0456,609.168,0.00396579,0.0229121
0.0457,609.202,0.00396349,0.0229121
0.0458,609.236,0.0039612,0.022912
0.0459,609.269,0.00395891,0.022912
0.046,609.303,0.00395662,0.022912
0.0461,609.336,0.00395433,0.022912
0.0462,609.369,0.00395204,0.022912
0.0463,609.402,0.00394975,0.022912
0.0464,609.435,0.00394745,0.0229119
0.0465,609.467,0.00394516,0.0229119
0.0466,609.499,0.00394287,0.0229119
0.0467,609.532,0.00394058,0.0229119
0.0468,609.563,0.00393829,0.0229119
0.0469,609.595,0.003936,0.0229119
0.047,609.626,0.00393371,0.0229119
0.0471,609.658,0.00393142,0.0229119
0.0472,609.689,0.00392913,0.0229118
0.0473,609.72,0.00392683,0.0229118
0.0474,609.75,0.00392454,0.0229118
0.0475,609.781,0.00392225,0.0229118
0.0476,609.811,0.00391996,0.0229118
0.0477,609.841,0.00391767,0.0229118
0.0478,609.871,0.00391538,0.0229118
0.0479,609.901,0.00391309,0.0229118
0.048,609.93,0.0039108,0.0229118
0.0481,609.959,0.0039085,0.0229118
0.0482,609.989,0.00390621,0.0229117
0.0483,610.018,0.00390392,0.0229117
0.0484,610.046,0.00390163,0.0229117
0.0485,610.075,0.00389934,0.0229117
0.0486,610.103,0.00389705,0.0229117
0.0487,610.132,0.00389476,0.0229117
0.0488,610.16,0.00389247,0.0229117
0.0489,610.187,0.00389018,0.0229117
0.049,610.215,0.00388788,0.0229117
0.0491,610.243,0.00388559,0.0229117
0.0492,610.27,0.0038833,0.0229117
0.0493,610.297,0.00388101,0.0229117
0.0494,610.324,0.00387872,0.0229117
0.0495,610.351,0.00387643,0.0229117
0.0496,610.378,0.00387414,0.0229116
0.0497,610.404,0.00387185,0.0229116
0.0498,610.43,0.00386956,0.0229116
0.0499,610.457,0.00386726,0.0229116
0.05,610.483,0.00386497,0.0229116
0.0501,610.508,0.00386268,0.0229116
0.0502,610.534,0.00386039,0.0229116
0.0503,610.56,0.0038581,0.0229116
0.0504,610.585,0.00385581,0.0229116
0.0505,610.61,0.00385352,0.0229116
0.0506,610.635,0.00385123,0.0229116
0.0507,610.66,0.00384893,0.0229116
0.0508,610.685,0.00384664,0.0229116
0.0509,610.709,0.00384435,0.0229116
0.051,610.734,0.00384206,0.0229116
0.0511,610.758,0.00383977,0.0229116
0.0512,610.782,0.00383748,0.0229116
0.0513,610.806,0.00383519,0.0229116
0.0514,610.83,0.0038329,0.0229116
0.0515,610.853,0.00383061,0.0229116
0.0516,610.877,0.00382831,0.0229116
0.0517,610.9,0.00382602,0.0229116
0.0518,610.923,0.00382373,0.0229116
0.0519,610.946,0.00382144,0.0229116
0.052,610.969,0.00381915,0.0229116
0.0521,610.992,0.00381686,0.0229116
0.0522,611.014,0.00381457,0.0229115
0.0523,611.037,0.00381228,0.0229115
0.0524,611.059,0.00380999,0.0229115
0.0525,611.081,0.00380769,0.0229115
0.0526,611.103,0.0038054,0.0229115
0.0527,611.125,0.00380311,0.0229115
0.0528,611.147,0.00380082,0.0229115
0.0529,611.169,0.00379853,0.0229115
0.053,611.19,0.00379624,0.0229115
0.0531,611.211,0.00379395,0.0229115
0.0532,611.233,0.00379166,0.0229115
0.0533,611.254,0.00378936,0.0229115
0.0534,611.275,0.00378707,0.0229115
0.0535,611.295,0.00378478,0.0229115
0.0536,611.316,0.00378249,0.0229115
0.0537,611.337,0.0037802,0.0229115
0.0538,611.357,0.00377791,0.0229115
0.0539,611.377,0.00377562,0.0229115
0.054,611.397,0.00377333,0.0229115
0.0541,611.417,0.00377104,0.0229115
0.0542,611.437,0.00376874,0.0229115
0.0543,611.457,0.00376645,0.0229115
0.0544,611.477,0.00376416,0.0229115
0.0545,611.496,0.00376187,0.0229115
0.0546,611.516,0.00375958,0.0229115
0.0547,611.535,0.00375729,0.0229115
0.0548,611.554,0.003755,0.0229115
0.0549,611.573,0.00375271,0.0229115
0.055,611.592,0.00375042,0.0229115
0.0551,611.611,0.00374812,0.0229115
0.0552,611.63,0.00374583,0.0229115
0.0553,611.648,0.00374354,0.0229115
0.0554,611.667,0.00374125,0.0229115
0.0555,611.685,0.00373896,0.0229115
0.0556,611.703,0.00373667,0.0229115
0.0557,611.721,0.00373438,0.0229116
0.0558,611.739,0.00373209,0.0229116
0.0559,611.757,0.0037298,0.0229116
0.056,611.775,0.0037275,0.0229116
0.0561,611.792,0.00372521,0.0229116
0.0562,611.81,0.00372292,0.0229116
0.0563,611.827,0.00372063,0.0229116
0.0564,611.845,0.00371834,0.0229116
0.0565,611.862,0.00371605,0.0229116
0.0566,611.879,0.00371376,0.0229116
0.0567,611.896,0.00371147,0.0229116
0.0568,611.913,0.00370917,0.0229116
0.0569,611.929,0.00370688,0.0229116
0.057,611.946,0.00370459,0.0229116
0.0571,611.963,0.0037023,0.0229116
0.0572,611.979,0.00370001,0.0229116
0.0573,611.995,0.00369772,0.0229116
0.0574,612.012,0.00369543,0.0229116
0.0575,612.028,0.00369314,0.0229117
0.0576,612.044,0.00369085,0.0229117
0.0577,612.06,0.00368855,0.0229117
0.0578,612.076,0.00368626,0.0229117
0.0579,612.091,0.00368397,0.0229117
0.058,612.107,0.00368168,0.0229117
0.0581,612.122,0.00367939,0.0229117
0.0582,612.138,0.0036771,0.0229117
0.0583,612.153,0.00367481,0.0229117
0.0584,612.168,0.00367252,0.0229117
0.0585,612.184,0.00367023,0.0229117
0.0586,612.199,0.00366793,0.0229117
0.0587,612.214,0.00366564,0.0229117
0.0588,612.228,0.00366335,0.0229117
0.0589,612.243,0.00366106,0.0229117
0.059,612.258,0.00365877,0.0229117
0.0591,612.272,0.00365648,0.0229117
0.0592,612.287,0.00365419,0.0229117
0.0593,612.301,0.0036519,0.0229117
0.0594,612.316,0.0036496,0.0229117
0.0595,612.33,0.00364731,0.0229117
0.0596,612.344,0.00364502,0.0229117
0.0597,612.358,0.00364273,0.0229117
0.0598,612.372,0.00364044,0.0229117
0.0599,612.386,0.00363815,0.0229117
0.06,612.399,0.00363586,0.0229117
0.0601,612.413,0.00363357,0.0229117
0.0602,612.427,0.00363127,0.0229117
0.0603,612.44,0.00362898,0.0229117
0.0604,612.454,0.00362669,0.0229117
0.0605,612.467,0.0036244,0.0229117
0.0606,612.48,0.00362211,0.0229117
0.0607,612.493,0.00361982,0.0229117
0.0608,612.506,0.00361753,0.0229117
0.0609,612.519,0.00361524,0.0229117
0.061,612.532,0.00361294,0.0229117
0.0611,612.545,0.00361065,0.0229117
0.0612,612.558,0.00360836,0.0229117
0.0613,612.571,0.00360607,0.0229117
0.0614,612.583,0.00360378,0.0229117
0.0615,612.596,0.00360149,0.0229117
0.0616,612.608,0.0035992,0.0229117
0.0617,612.621,0.00359691,0.0229117
0.0618,612.633,0.00359462,0.0229117
0.0619,612.645,0.00359232,0.0229117
0.062,612.657,0.00359003,0.0229118
0.0621,612.669,0.00358774,0.0229118
0.0622,612.681,0.00358545,0.0229118
0.0623,612.693,0.00358316,0.0229118
0.0624,612.705,0.00358087,0.0229118
0.0625,612.717,0.00357858,0.0229118
0.0626,612.728,0.00357629,0.0229118
0.0627,612.74,0.003574,0.0229118
0.0628,612.751,0.0035717,0.0229118
0.0629,612.763,0.00356941,0.0229118
0.063,612.774,0.00356712,0.0229118
0.0631,612.785,0.00356483,0.0229118
0.0632,612.797,0.00356254,0.0229118
0.0633,612.808,0.00356025,0.0229118
0.0634,612.819,0.00355796,0.0229118
0.0635,612.83,0.00355567,0.0229118
0.0636,612.841,0.00355337,0.0229118
0.0637,612.852,0.00355108,0.0229118
0.0638,612.863,0.00354879,0.0229118
0.0639,612.873,0.0035465,0.0229118
0.064,612.884,0.00354421,0.0229118
0.0641,612.895,0.00354192,0.0229118
0.0642,612.905,0.00353963,0.0229118
0.0643,612.916,0.00353734,0.0229118
0.0644,612.926,0.00353505,0.0229118
0.0645,612.936,0.00353275,0.0229118
0.0646,612.947,0.00353046,0.0229118
0.0647,612.957,0.00352817,0.0229118
0.0648,612.967,0.00352588,0.0229118
0.0649,612.977,0.00352359,0.0229118
0.065,612.987,0.0035213,0.0229118
0.0651,612.997,0.00351901,0.0229118
0.0652,613.007,0.00351672,0.0229118
0.0653,613.017,0.00351443,0.0229118
0.0654,613.026,0.00351213,0.0229118
0.0655,613.036,0.00350984,0.0229118
0.0656,613.046,0.00350755,0.0229118
0.0657,613.055,0.00350526,0.0229118
0.0658,613.065,0.00350297,0.0229118
0.0659,613.074,0.00350068,0.0229118
0.066,613.084,0.00349839,0.0229118
0.0661,613.093,0.0034961,0.0229117
0.0662,613.102,0.0034938,0.0229117
0.0663,613.111,0.00349151,0.0229117
0.0664,613.121,0.00348922,0.0229116
0.0665,613.13,0.00348693,0.0229116
0.0666,613.139,0.00348464,0.0229116
0.0667,613.148,0.00348235,0.0229116
0.0668,613.157,0.00348006,0.0229116
0.0669,613.166,0.00347777,0.0229115
0.067,613.174,0.00347547,0.0229115
0.0671,613.183,0.00347318,0.0229115
0.0672,613.192,0.00347089,0.0229115
0.0673,613.2,0.0034686,0.0229115
0.0674,613.209,0.00346631,0.0229114
0.0675,613.218,0.00346402,0.0229114
0.0676,613.226,0.00346173,0.0229114
0.0677,613.234,0.00345944,0.0229114
0.0678,613.243,0.00345715,0.0229114
0.0679,613.251,0.00345486,0.0229113
0.068,613.259,0.00345256,0.0229113
0.0681,613.268,0.00345027,0.0229113
0.0682,613.276,0.00344798,0.0229113
0.0683,613.284,0.00344569,0.0229113
0.0684,613.292,0.0034434,0.0229113
0.0685,613.3,0.00344111,0.0229113
0.0686,613.308,0.00343882,0.0229113
0.0687,613.316,0.00343653,0.0229112
0.0688,613.324,0.00343423,0.0229112
0.0689,613.332,0.00343194,0.0229112
0.069,613.339,0.00342965,0.0229112
0.0691,613.347,0.00342736,0.0229112
0.0692,613.355,0.00342507,0.0229112
0.0693,613.362,0.00342278,0.0229112
0.0694,613.37,0.00342049,0.0229112
0.0695,613.377,0.0034182,0.0229112
0.0696,613.385,0.00341591,0.0229111
0.0697,613.392,0.00341361,0.0229111
0.0698,613.4,0.00341132,0.0229111
0.0699,613.407,0.00340903,0.0229111
0.07,613.414,0.00340674,0.0229111
0.0701,613.422,0.00340445,0.0229111
0.0702,613.429,0.00340216,0.0229111
0.0703,613.436,0.00339987,0.0229111
0.0704,613.443,0.00339758,0.0229111
0.0705,613.45,0.00339529,0.0229111
0.0706,613.457,0.00339299,0.0229111
0.0707,613.464,0.0033907,0.0229111
0.0708,613.471,0.00338841,0.022911
0.0709,613.478,0.00338612,0.022911
0.071,613.485,0.00338383,0.022911
0.0711,613.491,0.00338154,0.022911
0.0712,613.498,0.00337925,0.022911
0.0713,613.505,0.00337696,0.022911
0.0714,613.512,0.00337467,0.022911
0.0715,613.518,0.00337237,0.022911
0.0716,613.525,0.00337008,0.022911
0.0717,613.531,0.00336779,0.022911
0.0718,613.538,0.0033655,0.022911
0.0719,613.544,0.00336321,0.022911
0.072,613.551,0.00336092,0.022911
0.0721,613.557,0.00335863,0.022911
0.0722,613.563,0.00335634,0.022911
0.0723,613.57,0.00335405,0.022911
0.0724,613.576,0.00335176,0.022911
0.0725,613.582,0.00334946,0.022911
0.0726,613.588,0.00334717,0.022911
0.0727,613.594,0.00334488,0.022911
0.0728,613.601,0.00334259,0.022911
0.0729,613.607,0.0033403,0.022911
0.073,613.613,0.00333801,0.0229109
0.0731,613.619,0.00333572,0.0229109
0.0732,613.625,0.00333343,0.0229109
0.0733,613.631,0.00333113,0.0229109
0.0734,613.636,0.00332884,0.0229109
0.0735,613.642,0.00332655,0.0229109
0.0736,613.648,0.00332426,0.0229109
0.0737,613.654,0.00332197,0.0229109
0.0738,613.659,0.00331968,0.0229109
0.0739,613.665,0.00331739,0.0229109
0.074,613.671,0.0033151,0.0229109
0.0741,613.676,0.00331281,0.0229109
0.0742,613.682,0.00331051,0.0229109
0.0743,613.688,0.00330822,0.0229109
0.0744,613.693,0.00330593,0.0229109
0.0745,613.699,0.00330364,0.0229109
0.0746,613.704,0.00330135,0.0229109
0.0747,613.709,0.00329906,0.0229109
0.0748,613.715,0.00329677,0.0229109
0.0749,613.72,0.00329448,0.0229109
0.075,613.725,0.00329219,0.0229109
0.0751,613.731,0.0032899,0.0229109
0.0752,613.736,0.0032876,0.0229109
0.0753,613.741,0.00328531,0.0229109
0.0754,613.746,0.00328302,0.0229109
0.0755,613.751,0.00328073,0.0229109
0.0756,613.757,0.00327844,0.0229109
0.0757,613.762,0.00327615,0.0229109
0.0758,613.767,0.00327386,0.0229109
0.0759,613.772,0.00327157,0.0229109
0.076,613.777,0.00326928,0.0229109
0.0761,613.782,0.00326698,0.0229109
0.0762,613.786,0.00326469,0.0229109
0.0763,613.791,0.0032624,0.0229109
0.0764,613.796,0.00326011,0.0229109
0.0765,613.801,0.00325782,0.0229109
0.0766,613.806,0.00325553,0.0229109
0.0767,613.811,0.00325324,0.0229109
0.0768,613.815,0.00325095,0.0229109
0.0769,613.82,0.00324866,0.022911
0.077,613.825,0.00324636,0.0229113
0.0771,613.83,0.00324407,0.0229115
0.0772,613.834,0.00324178,0.0229117
0.0773,613.839,0.00323949,0.022912
0.0774,613.844,0.0032372,0.0229122
0.0775,613.848,0.00323491,0.0229124
0.0776,613.853,0.00323262,0.0229126
0.0777,613.857,0.00323033,0.0229128
0.0778,613.862,0.00322803,0.022913
0.0779,613.866,0.00322574,0.0229132
0.078,613.871,0.00322345,0.0229133
0.0781,613.875,0.00322116,0.0229135
0.0782,613.879,0.00321887,0.0229137
0.0783,613.884,0.00321658,0.0229138
0.0784,613.888,0.00321429,0.022914
0.0785,613.892,0.003212,0.0229142
0.0786,613.897,0.0032097,0.0229143
0.0787,613.901,0.00320741,0.0229144
0.0788,613.905,0.00320512,0.0229146
0.0789,613.909,0.00320283,0.0229147
0.079,613.913,0.00320054,0.0229149
0.0791,613.918,0.00319825,0.022915
0.0792,613.922,0.00319596,0.0229151
0.0793,613.926,0.00319366,0.0229152
0.0794,613.93,0.00319137,0.0229153
0.0795,613.934,0.00318908,0.0229155
0.0796,613.938,0.00318679,0.0229156
0.0797,613.942,0.0031845,0.0229157
0.0798,613.946,0.00318221,0.0229158
0.0799,613.95,0.00317991,0.0229159
0.08,613.953,0.00317762,0.022916
0.0801,613.957,0.00317533,0.0229161
0.0802,613.961,0.00317304,0.0229162
0.0803,613.965,0.00317075,0.0229162
0.0804,613.969,0.00316846,0.0229163
0.0805,613.972,0.00316616,0.0229164
0.0806,613.976,0.00316387,0.0229165
0.0807,613.98,0.00316158,0.0229166
0.0808,613.984,0.00315929,0.0229166
0.0809,613.987,0.003157,0.0229167
0.081,613.991,0.00315471,0.0229168
0.0811,613.994,0.00315242,0.0229169
0.0812,613.998,0.00315012,0.0229169
0.0813,614.002,0.00314783,0.022917
0.0814,614.005,0.00314554,0.0229171
0.0815,614.009,0.00314325,0.0229171
0.0816,614.012,0.00314096,0.0229172
0.0817,614.016,0.00313866,0.0229172
0.0818,614.019,0.00313637,0.0229173
0.0819,614.023,0.00313408,0.0229173
0.082,614.026,0.00313179,0.0229174
0.0821,614.029,0.0031295,0.0229174
0.0822,614.033,0.00312721,0.0229175
0.0823,614.036,0.00312491,0.0229175
0.0824,614.039,0.00312262,0.0229176
0.0825,614.043,0.00312033,0.0229176
0.0826,614.046,0.00311804,0.0229177
0.0827,614.049,0.00311575,0.0229177
0.0828,614.052,0.00311346,0.0229178
0.0829,614.056,0.00311116,0.0229178
0.083,614.059,0.00310887,0.0229178
0.0831,614.062,0.00310658,0.0229179
0.0832,614.065,0.00310429,0.0229179
0.0833,614.068,0.003102,0.0229179
0.0834,614.071,0.0030997,0.022918
0.0835,614.074,0.00309741,0.022918
0.0836,614.077,0.00309512,0.022918
0.0837,614.08,0.00309283,0.0229181
0.0838,614.084,0.00309054,0.0229181
0.0839,614.087,0.00308824,0.0229181
0.084,614.09,0.00308595,0.0229182
0.0841,614.092,0.00308366,0.0229182
0.0842,614.095,0.00308137,0.0229182
0.0843,614.098,0.00307908,0.0229182
0.0844,614.101,0.00307679,0.0229183
0.0845,614.104,0.00307449,0.0229183
0.0846,614.107,0.0030722,0.0229183
0.0847,614.11,0.00306991,0.0229183
0.0848,614.113,0.00306762,0.0229183
0.0849,614.116,0.00306533,0.0229184
0.085,614.118,0.00306304,0.0229184
0.0851,614.121,0.00306074,0.0229184
0.0852,614.124,0.00305845,0.0229184
0.0853,614.127,0.00305616,0.0229184
0.0854,614.129,0.00305387,0.0229185
0.0855,614.132,0.00305158,0.0229185
0.0856,614.135,0.00304928,0.0229185
0.0857,614.137,0.00304699,0.0229185
0.0858,614.14,0.0030447,0.0229185
0.0859,614.143,0.00304241,0.0229185
0.086,614.145,0.00304012,0.0229186
0.0861,614.148,0.00303782,0.0229186
0.0862,614.151,0.00303553,0.0229186
0.0863,614.153,0.00303324,0.0229186
0.0864,614.156,0.00303095,0.0229186
0.0865,614.158,0.00302866,0.0229186
0.0866,614.161,0.00302637,0.0229186
0.0867,614.163,0.00302407,0.0229187
0.0868,614.166,0.00302178,0.0229187
0.0869,614.168,0.00301949,0.0229187
0.087,614.171,0.0030172,0.0229187
0.0871,614.173,0.00301491,0.0229187
0.0872,614.176,0.00301261,0.0229187
0.0873,614.178,0.00301032,0.0229187
0.0874,614.18,0.00300803,0.0229187
0.0875,614.183,0.00300574,0.0229187
0.0876,614.185,0.00300345,0.0229188
0.0877,614.188,0.00300115,0.0229188
0.0878,614.19,0.00299886,0.0229188
0.0879,614.192,0.00299657,0.0229189
0.088,614.195,0.00299428,0.022919
0.0881,614.197,0.00299199,0.022919
0.0882,614.199,0.0029897,0.0229191
0.0883,614.202,0.0029874,0.0229192
0.0884,614.204,0.00298511,0.0229193
0.0885,614.206,0.00298282,0.0229193
0.0886,614.208,0.00298053,0.0229194
0.0887,614.211,0.00297824,0.0229195
0.0888,614.213,0.00297594,0.0229195
0.0889,614.215,0.00297365,0.0229196
0.089,614.217,0.00297136,0.0229196
0.0891,614.219,0.00296907,0.0229197
0.0892,614.222,0.00296678,0.0229198
0.0893,614.224,0.00296448,0.0229198
0.0894,614.226,0.00296219,0.0229199
0.0895,614.228,0.0029599,0.0229199
0.0896,614.23,0.00295761,0.02292
0.0897,614.232,0.00295532,0.02292
0.0898,614.234,0.00295302,0.0229201
0.0899,614.236,0.00295073,0.0229201
0.09,614.238,0.00294844,0.0229201
0.0901,614.24,0.00294615,0.0229202
0.0902,614.242,0.00294386,0.0229202
0.0903,614.244,0.00294156,0.0229203
0.0904,614.246,0.00293927,0.0229203
0.0905,614.248,0.00293698,0.0229203
0.0906,614.25,0.00293469,0.0229204
0.0907,614.252,0.0029324,0.0229204
0.0908,614.254,0.0029301,0.0229204
0.0909,614.256,0.00292781,0.0229205
0.091,614.258,0.00292552,0.0229205
0.0911,614.26,0.00292323,0.0229205
0.0912,614.262,0.00292094,0.0229206
0.0913,614.264,0.00291864,0.0229206
0.0914,614.266,0.00291635,0.0229206
0.0915,614.268,0.00291406,0.0229206
0.0916,614.269,0.00291177,0.0229207
0.0917,614.271,0.00290947,0.0229207
0.0918,614.273,0.00290718,0.0229207
0.0919,614.275,0.00290489,0.0229207
0.092,614.277,0.0029026,0.0229208
0.0921,614.278,0.00290031,0.0229208
0.0922,614.28,0.00289802,0.0229208
0.0923,614.282,0.00289572,0.0229208
0.0924,614.284,0.00289343,0.0229209
0.0925,614.286,0.00289114,0.0229209
0.0926,614.287,0.00288885,0.0229209
0.0927,614.289,0.00288655,0.0229209
0.0928,614.291,0.00288426,0.0229209
0.0929,614.292,0.00288197,0.022921
0.093,614.294,0.00287968,0.022921
0.0931,614.296,0.00287739,0.022921
0.0932,614.297,0.00287509,0.022921
0.0933,614.299,0.0028728,0.022921
0.0934,614.301,0.00287051,0.022921
0.0935,614.302,0.00286822,0.022921
0.0936,614.304,0.00286593,0.0229211
0.0937,614.306,0.00286363,0.0229211
0.0938,614.307,0.00286134,0.0229211
0.0939,614.309,0.00285905,0.0229211
0.094,614.31,0.00285676,0.0229211
0.0941,614.312,0.00285447,0.0229211
0.0942,614.313,0.00285217,0.0229211
0.0943,614.315,0.00284988,0.0229211
0.0944,614.317,0.00284759,0.0229212
0.0945,614.318,0.0028453,0.0229212
0.0946,614.32,0.002843,0.0229212
0.0947,614.321,0.00284071,0.0229212
0.0948,614.323,0.00283842,0.0229212
0.0949,614.324,0.00283613,0.0229212
0.095,614.326,0.00283384,0.0229212
0.0951,614.327,0.00283154,0.0229212
0.0952,614.329,0.00282925,0.0229212
0.0953,614.33,0.00282696,0.0229212
0.0954,614.331,0.00282467,0.0229213
0.0955,614.333,0.00282238,0.0229213
0.0956,614.334,0.00282008,0.0229213
0.0957,614.336,0.00281779,0.0229213
0.0958,614.337,0.0028155,0.0229213
0.0959,614.339,0.00281321,0.0229213
0.096,614.34,0.00281092,0.0229213
0.0961,614.341,0.00280862,0.0229213
0.0962,614.343,0.00280633,0.0229213
0.0963,614.344,0.00280404,0.0229213
0.0964,614.345,0.00280175,0.0229213
0.0965,614.347,0.00279945,0.0229213
0.0966,614.348,0.00279716,0.0229213
0.0967,614.349,0.00279487,0.0229213
0.0968,614.351,0.00279258,0.0229213
0.0969,614.352,0.00279029,0.0229214
0.097,614.353,0.00278799,0.0229214
0.0971,614.355,0.0027857,0.0229214
0.0972,614.356,0.00278341,0.0229214
0.0973,614.357,0.00278112,0.0229214
0.0974,614.358,0.00277883,0.0229214
0.0975,614.36,0.00277653,0.0229214
0.0976,614.361,0.00277424,0.0229214
0.0977,614.362,0.00277195,0.0229214
0.0978,614.363,0.00276966,0.0229214
0.0979,614.365,0.00276737,0.0229214
0.098,614.366,0.00276507,0.0229214
0.0981,614.367,0.00276278,0.0229214
0.0982,614.368,0.00276049,0.0229214
0.0983,614.37,0.0027582,0.0229214
0.0984,614.371,0.0027559,0.0229214
0.0985,614.372,0.00275361,0.0229214
0.0986,614.373,0.00275132,0.0229214
0.0987,614.374,0.00274903,0.022922
0.0988,614.376,0.00274673,0.0229234
0.0989,614.378,0.00274444,0.0229248
0.099,614.379,0.00274215,0.0229261
0.0991,614.381,0.00273986,0.0229274
0.0992,614.383,0.00273757,0.0229287
0.0993,614.384,0.00273527,0.0229299
0.0994,614.386,0.00273298,0.0229311
0.0995,614.387,0.00273069,0.0229322
0.0996,614.389,0.00272839,0.0229333
0.0997,614.39,0.0027261,0.0229344
0.0998,614.391,0.0027238,0.0229354
0.0999,614.393,0.00272151,0.0229364
0.1,614.394,0.00271922,0.0229374
