Date [s],Average:Temperature (Study 01 - Particles) [K],Max:Particle Z-Coordinate (Study 01 - Particles) [m],Min:Absolute Translational Velocity (Study 01 - Particles) [m/s]
0.0015,542.988,0.00489686,0.000283008
0.0016,545.9,0.0048968,0.000861044
0.0017,548.747,0.00489669,0.00142766
0.0018,551.548,0.00489652,0.00198354
0.0019,554.306,0.00489629,0.0025282
0.002,557.025,0.00489601,0.00306121
0.0021,559.711,0.00489568,0.00358342
0.0022,562.364,0.0048953,0.00409446
0.0023,564.985,0.00489486,0.00459402
0.0024,567.579,0.00489438,0.00508294
0.0025,570.145,0.00489385,0.00556093
0.0026,572.681,0.00489327,0.00602775
0.0027,575.194,0.00489264,0.00648422
0.0028,577.681,0.00489197,0.00693012
0.0029,580.144,0.00489125,0.00736557
0.003,582.581,0.0048905,0.00779039
0.0031,584.997,0.0048897,0.00820539
0.0032,587.39,0.00488886,0.00861038
0.0033,589.759,0.00488798,0.00900523
0.0034,592.109,0.00488706,0.00939069
0.0035,594.437,0.0048861,0.00976662
0.0036,596.742,0.0048851,0.0101329
0.0037,599.028,0.00488407,0.0104903
0.0038,601.295,0.004883,0.0108387
0.0039,603.54,0.0048819,0.0111779
0.004,605.767,0.00488077,0.0115087
0.0041,607.976,0.0048796,0.011831
0.0042,610.164,0.0048784,0.0121448
0.0043,612.335,0.00487717,0.0124505
0.0044,614.488,0.00487591,0.0127483
0.0045,616.623,0.00487462,0.0130383
0.0046,618.738,0.00487331,0.0133203
0.0047,620.838,0.00487196,0.0135951
0.0048,622.921,0.00487059,0.0138626
0.0049,624.985,0.00486919,0.0141227
0.005,627.034,0.00486776,0.0143759
0.0051,629.067,0.00486631,0.0146224
0.0052,631.082,0.00486484,0.0148619
0.0053,633.082,0.00486334,0.0150951
0.0054,635.066,0.00486182,0.0153219
0.0055,637.034,0.00486028,0.0155424
0.0056,638.987,0.00485871,0.0157569
0.0057,640.925,0.00485713,0.0159655
0.0058,642.848,0.00485552,0.0161683
0.0059,644.755,0.00485389,0.0163653
0.006,646.649,0.00485225,0.016557
0.0061,648.527,0.00485058,0.0167433
0.0062,650.39,0.0048489,0.0169243
0.0063,652.241,0.0048472,0.0171003
0.0064,654.077,0.00484548,0.0172713
0.0065,655.898,0.00484374,0.0174374
0.0066,657.706,0.00484199,0.0175989
0.0067,659.501,0.00484022,0.0177558
0.0068,661.282,0.00483844,0.0179081
0.0069,663.05,0.00483664,0.0180562
0.007,664.805,0.00483483,0.0182001
0.0071,666.547,0.004833,0.0183398
0.0072,668.275,0.00483116,0.0184754
0.0073,669.991,0.00482931,0.0186073
0.0074,671.695,0.00482744,0.0187353
0.0075,673.385,0.00482556,0.0188595
0.0076,675.064,0.00482367,0.0189802
0.0077,676.73,0.00482176,0.0190975
0.0078,678.384,0.00481985,0.0192112
0.0079,680.026,0.00481792,0.0193218
0.008,681.657,0.00481598,0.0194291
0.0081,683.274,0.00481404,0.0195332
0.0082,684.882,0.00481208,0.0196343
0.0083,686.477,0.00481011,0.0197325
0.0084,688.06,0.00480813,0.0198278
0.0085,689.633,0.00480614,0.0199203
0.0086,691.195,0.00480415,0.0200101
0.0087,692.746,0.00480214,0.0200973
0.0088,694.284,0.00480013,0.0201819
0.0089,695.813,0.00479811,0.020264
0.009,697.331,0.00479607,0.0203437
0.0091,698.837,0.00479404,0.020421
0.0092,700.333,0.00479199,0.020496
0.0093,701.819,0.00478994,0.0205689
0.0094,703.294,0.00478788,0.0206395
0.0095,704.759,0.00478581,0.0207081
0.0096,706.214,0.00478373,0.0207747
0.0097,707.658,0.00478166,0.0208392
0.0098,709.093,0.00477957,0.0209019
0.0099,710.518,0.00477747,0.0209627
0.01,711.933,0.00477537,0.0210217
0.0101,713.338,0.00477327,0.0210789
0.0102,714.733,0.00477116,0.0211345
0.0103,716.119,0.00476904,0.0211883
0.0104,717.495,0.00476692,0.0212406
0.0105,718.862,0.0047648,0.0212913
0.0106,720.219,0.00476266,0.0213405
0.0107,721.567,0.00476053,0.0213882
0.0108,722.906,0.00475839,0.0214345
0.0109,724.236,0.00475624,0.0214794
0.011,725.556,0.00475409,0.021523
0.0111,726.868,0.00475194,0.0215652
0.0112,728.171,0.00474978,0.0216062
0.0113,729.465,0.00474761,0.0216458
0.0114,730.749,0.00474545,0.0216841
0.0115,732.026,0.00474328,0.0217214
0.0116,733.294,0.0047411,0.0217575
0.0117,734.552,0.00473893,0.0217925
0.0118,735.803,0.00473675,0.0218265
0.0119,737.045,0.00473456,0.0218595
0.012,738.279,0.00473237,0.0218914
0.0121,739.505,0.00473018,0.0219224
0.0122,740.722,0.00472799,0.0219525
0.0123,741.931,0.00472579,0.0219816
0.0124,743.132,0.00472359,0.0220099
0.0125,744.325,0.00472139,0.0220373
0.0126,745.51,0.00471919,0.0220639
0.0127,746.687,0.00471698,0.0220897
0.0128,747.857,0.00471477,0.0221148
0.0129,749.019,0.00471255,0.022139
0.013,750.172,0.00471034,0.0221626
0.0131,751.319,0.00470812,0.0221854
0.0132,752.458,0.0047059,0.0222075
0.0133,753.588,0.00470368,0.022229
0.0134,754.712,0.00470146,0.0222498
0.0135,755.828,0.00469923,0.02227
0.0136,756.936,0.004697,0.0222895
0.0137,758.038,0.00469477,0.0223085
0.0138,759.132,0.00469254,0.0223269
0.0139,760.219,0.00469031,0.0223448
0.014,761.299,0.00468807,0.0223621
0.0141,762.372,0.00468583,0.0223789
0.0142,763.438,0.0046836,0.0223952
0.0143,764.496,0.00468136,0.0224109
0.0144,765.548,0.00467911,0.0224263
0.0145,766.593,0.00467687,0.0224411
0.0146,767.63,0.00467463,0.0224555
0.0147,768.661,0.00467238,0.0224695
0.0148,769.686,0.00467013,0.022483
0.0149,770.703,0.00466788,0.0224961
0.015,771.714,0.00466563,0.0225088
0.0151,772.719,0.00466338,0.0225212
0.0152,773.716,0.00466113,0.0225331
0.0153,774.708,0.00465888,0.0225447
0.0154,775.693,0.00465662,0.022556
0.0155,776.671,0.00465436,0.0225669
0.0156,777.643,0.00465211,0.0225775
0.0157,778.609,0.00464985,0.0225877
0.0158,779.568,0.00464759,0.0225977
0.0159,780.521,0.00464533,0.0226073
0.016,781.468,0.00464307,0.0226167
0.0161,782.409,0.0046408,0.0226257
0.0162,783.344,0.00463854,0.0226345
0.0163,784.273,0.00463628,0.022643
0.0164,785.195,0.00463401,0.0226513
0.0165,786.112,0.00463175,0.0226593
0.0166,787.023,0.00462948,0.0226671
0.0167,787.928,0.00462721,0.0226746
0.0168,788.826,0.00462495,0.0226819
0.0169,789.719,0.00462268,0.022689
0.017,790.607,0.00462041,0.0226959
0.0171,791.489,0.00461814,0.0227025
0.0172,792.364,0.00461587,0.022709
0.0173,793.235,0.0046136,0.0227152
0.0174,794.1,0.00461132,0.0227213
0.0175,794.958,0.00460905,0.0227272
0.0176,795.812,0.00460678,0.0227329
0.0177,796.66,0.00460451,0.0227384
0.0178,797.502,0.00460223,0.0227438
0.0179,798.34,0.00459996,0.022749
0.018,799.172,0.00459768,0.022754
0.0181,799.998,0.00459541,0.0227589
0.0182,800.819,0.00459313,0.0227637
0.0183,801.635,0.00459085,0.0227683
0.0184,802.446,0.00458858,0.0227727
0.0185,803.251,0.0045863,0.022777
0.0186,804.051,0.00458402,0.0227812
0.0187,804.846,0.00458174,0.0227853
0.0188,805.636,0.00457947,0.0227892
0.0189,806.421,0.00457719,0.022793
0.019,807.201,0.00457491,0.0227967
0.0191,807.975,0.00457263,0.0228003
0.0192,808.745,0.00457035,0.0228038
0.0193,809.51,0.00456807,0.0228072
0.0194,810.27,0.00456579,0.0228105
0.0195,811.025,0.0045635,0.0228136
0.0196,811.775,0.00456122,0.0228167
0.0197,812.521,0.00455894,0.0228197
0.0198,813.261,0.00455666,0.0228226
0.0199,813.997,0.00455438,0.0228254
0.02,814.729,0.00455209,0.0228281
0.0201,815.455,0.00454981,0.0228307
0.0202,816.177,0.00454753,0.0228333
0.0203,816.894,0.00454524,0.0228358
0.0204,817.607,0.00454296,0.0228382
0.0205,818.315,0.00454068,0.0228405
0.0206,819.019,0.00453839,0.0228427
0.0207,819.718,0.00453611,0.0228449
0.0208,820.412,0.00453382,0.022847
0.0209,821.103,0.00453154,0.0228491
0.021,821.788,0.00452925,0.0228511
0.0211,822.47,0.00452697,0.022853
0.0212,823.147,0.00452468,0.0228549
0.0213,823.82,0.0045224,0.0228567
0.0214,824.488,0.00452011,0.0228585
0.0215,825.152,0.00451782,0.0228602
0.0216,825.812,0.00451554,0.0228619
0.0217,826.467,0.00451325,0.0228635
0.0218,827.119,0.00451097,0.022865
0.0219,827.767,0.00450868,0.0228665
0.022,828.41,0.00450639,0.022868
0.0221,829.049,0.00450411,0.0228694
0.0222,829.684,0.00450182,0.0228708
0.0223,830.315,0.00449953,0.0228721
0.0224,830.942,0.00449724,0.0228734
0.0225,831.565,0.00449496,0.0228746
0.0226,832.184,0.00449267,0.0228758
0.0227,832.799,0.00449038,0.022877
0.0228,833.41,0.00448809,0.0228781
0.0229,834.017,0.00448581,0.0228792
0.023,834.621,0.00448352,0.0228803
0.0231,835.22,0.00448123,0.0228813
0.0232,835.816,0.00447894,0.0228823
0.0233,836.408,0.00447665,0.0228833
0.0234,836.996,0.00447437,0.0228842
0.0235,837.58,0.00447208,0.0228851
0.0236,838.161,0.00446979,0.022886
0.0237,838.738,0.0044675,0.0228869
0.0238,839.311,0.00446521,0.0228877
0.0239,839.881,0.00446292,0.0228885
0.024,840.447,0.00446063,0.0228893
0.0241,841.01,0.00445834,0.02289
0.0242,841.569,0.00445605,0.0228908
0.0243,842.124,0.00445377,0.0228915
0.0244,842.675,0.00445148,0.0228922
0.0245,843.224,0.00444919,0.0228928
0.0246,843.768,0.0044469,0.0228935
0.0247,844.31,0.00444461,0.0228941
0.0248,844.848,0.00444232,0.0228947
0.0249,845.382,0.00444003,0.0228953
0.025,845.913,0.00443774,0.0228959
0.0251,846.441,0.00443545,0.0228965
0.0252,846.965,0.00443316,0.022897
0.0253,847.486,0.00443087,0.0228975
0.0254,848.004,0.00442858,0.022898
0.0255,848.518,0.00442629,0.0228985
0.0256,849.029,0.004424,0.022899
0.0257,849.537,0.00442171,0.0228994
0.0258,850.042,0.00441942,0.0228999
0.0259,850.543,0.00441713,0.0229003
0.026,851.041,0.00441484,0.0229007
0.0261,851.537,0.00441255,0.0229011
0.0262,852.028,0.00441026,0.0229015
0.0263,852.517,0.00440797,0.0229019
0.0264,853.003,0.00440568,0.0229023
0.0265,853.485,0.00440339,0.0229027
0.0266,853.965,0.0044011,0.022903
0.0267,854.442,0.00439881,0.0229033
0.0268,854.915,0.00439652,0.0229037
0.0269,855.386,0.00439423,0.022904
0.027,855.853,0.00439194,0.0229043
0.0271,856.318,0.00438965,0.0229046
0.0272,856.779,0.00438736,0.0229049
0.0273,857.238,0.00438507,0.0229052
0.0274,857.694,0.00438278,0.0229054
0.0275,858.146,0.00438049,0.0229057
0.0276,858.596,0.0043782,0.022906
0.0277,859.043,0.00437591,0.0229062
0.0278,859.487,0.00437362,0.0229064
0.0279,859.929,0.00437132,0.0229067
0.028,860.368,0.00436903,0.0229069
0.0281,860.804,0.00436674,0.0229071
0.0282,861.237,0.00436445,0.0229073
0.0283,861.667,0.00436216,0.0229075
0.0284,862.095,0.00435987,0.0229077
0.0285,862.519,0.00435758,0.0229079
0.0286,862.942,0.00435529,0.0229081
0.0287,863.361,0.004353,0.0229083
0.0288,863.778,0.00435071,0.0229085
0.0289,864.192,0.00434842,0.0229087
0.029,864.604,0.00434613,0.0229088
0.0291,865.013,0.00434384,0.022909
0.0292,865.419,0.00434154,0.0229091
0.0293,865.823,0.00433925,0.0229093
0.0294,866.224,0.00433696,0.0229094
0.0295,866.623,0.00433467,0.0229096
0.0296,867.019,0.00433238,0.0229097
0.0297,867.413,0.00433009,0.0229098
0.0298,867.804,0.0043278,0.02291
0.0299,868.192,0.00432551,0.0229101
0.03,868.579,0.00432322,0.0229102
0.0301,868.962,0.00432093,0.0229103
0.0302,869.344,0.00431863,0.0229105
0.0303,869.723,0.00431634,0.0229106
0.0304,870.099,0.00431405,0.0229107
0.0305,870.473,0.00431176,0.0229108
0.0306,870.845,0.00430947,0.0229109
0.0307,871.214,0.00430718,0.022911
0.0308,871.581,0.00430489,0.0229111
0.0309,871.946,0.0043026,0.0229112
0.031,872.309,0.00430031,0.0229113
0.0311,872.668,0.00429802,0.0229113
0.0312,873.026,0.00429572,0.0229114
0.0313,873.382,0.00429343,0.0229115
0.0314,873.735,0.00429114,0.0229116
0.0315,874.086,0.00428885,0.0229117
0.0316,874.435,0.00428656,0.0229117
0.0317,874.781,0.00428427,0.0229118
0.0318,875.126,0.00428198,0.0229119
0.0319,875.468,0.00427968,0.0229119
0.032,875.808,0.00427739,0.022912
0.0321,876.146,0.0042751,0.0229121
0.0322,876.482,0.00427281,0.0229121
0.0323,876.816,0.00427052,0.0229122
0.0324,877.147,0.00426823,0.0229123
0.0325,877.476,0.00426594,0.0229123
0.0326,877.804,0.00426365,0.0229124
0.0327,878.129,0.00426136,0.0229124
0.0328,878.452,0.00425906,0.0229125
0.0329,878.773,0.00425677,0.0229125
0.033,879.092,0.00425448,0.0229126
0.0331,879.409,0.00425219,0.0229126
0.0332,879.724,0.0042499,0.0229127
0.0333,880.037,0.00424761,0.0229126
0.0334,880.348,0.00424532,0.0229126
0.0335,880.658,0.00424303,0.0229126
0.0336,880.965,0.00424074,0.0229126
0.0337,881.27,0.00423844,0.0229126
0.0338,881.573,0.00423615,0.0229126
0.0339,881.874,0.00423386,0.0229126
0.034,882.174,0.00423157,0.0229126
0.0341,882.471,0.00422928,0.0229126
0.0342,882.767,0.00422699,0.0229126
0.0343,883.061,0.0042247,0.0229126
0.0344,883.352,0.0042224,0.0229126
0.0345,883.643,0.00422011,0.0229126
0.0346,883.931,0.00421782,0.0229126
0.0347,884.217,0.00421553,0.0229126
0.0348,884.502,0.00421324,0.0229126
0.0349,884.784,0.00421095,0.0229126
0.035,885.065,0.00420866,0.0229126
0.0351,885.345,0.00420637,0.0229126
0.0352,885.622,0.00420407,0.0229126
0.0353,885.898,0.00420178,0.0229126
0.0354,886.171,0.00419949,0.0229125
0.0355,886.444,0.0041972,0.0229125
0.0356,886.714,0.00419491,0.0229125
0.0357,886.983,0.00419262,0.0229125
0.0358,887.25,0.00419033,0.0229125
0.0359,887.515,0.00418804,0.0229125
0.036,887.779,0.00418574,0.0229125
0.0361,888.041,0.00418345,0.0229125
0.0362,888.301,0.00418116,0.0229125
0.0363,888.56,0.00417887,0.0229125
0.0364,888.817,0.00417658,0.0229125
0.0365,889.072,0.00417429,0.0229125
0.0366,889.326,0.004172,0.0229125
0.0367,889.578,0.00416971,0.0229125
0.0368,889.829,0.00416741,0.0229125
0.0369,890.078,0.00416512,0.0229125
0.037,890.325,0.00416283,0.0229125
0.0371,890.571,0.00416054,0.0229125
0.0372,890.815,0.00415825,0.0229125
0.0373,891.058,0.00415596,0.0229125
0.0374,891.299,0.00415367,0.0229125
0.0375,891.539,0.00415138,0.0229125
0.0376,891.777,0.00414908,0.0229125
0.0377,892.014,0.00414679,0.0229125
0.0378,892.249,0.0041445,0.0229125
0.0379,892.482,0.00414221,0.0229125
0.038,892.715,0.00413992,0.0229125
0.0381,892.945,0.00413763,0.0229125
0.0382,893.174,0.00413534,0.0229125
0.0383,893.402,0.00413305,0.0229125
0.0384,893.629,0.00413075,0.0229125
0.0385,893.853,0.00412846,0.0229125
0.0386,894.077,0.00412617,0.0229125
0.0387,894.299,0.00412388,0.0229125
0.0388,894.52,0.00412159,0.0229125
0.0389,894.739,0.0041193,0.0229125
0.039,894.957,0.00411701,0.0229125
0.0391,895.173,0.00411472,0.0229125
0.0392,895.388,0.00411242,0.0229125
0.0393,895.602,0.00411013,0.0229125
0.0394,895.815,0.00410784,0.0229125
0.0395,896.026,0.00410555,0.0229125
0.0396,896.235,0.00410326,0.0229125
0.0397,896.444,0.00410097,0.0229125
0.0398,896.651,0.00409868,0.0229125
0.0399,896.856,0.00409639,0.0229125
0.04,897.061,0.00409409,0.0229125
0.0401,897.264,0.0040918,0.0229125
0.0402,897.466,0.00408951,0.0229125
0.0403,897.667,0.00408722,0.0229125
0.0404,897.866,0.00408493,0.0229125
0.0405,898.064,0.00408264,0.0229125
0.0406,898.261,0.00408035,0.0229125
0.0407,898.456,0.00407805,0.0229125
0.0408,898.65,0.00407576,0.0229125
0.0409,898.844,0.00407347,0.0229125
0.041,899.035,0.00407118,0.0229125
0.0411,899.226,0.00406889,0.0229125
0.0412,899.416,0.0040666,0.0229125
0.0413,899.604,0.00406431,0.0229125
0.0414,899.791,0.00406202,0.0229125
0.0415,899.977,0.00405973,0.0229125
0.0416,900.161,0.00405743,0.0229125
0.0417,900.345,0.00405514,0.0229125
0.0418,900.527,0.00405285,0.0229125
0.0419,900.708,0.00405056,0.0229125
0.042,900.888,0.00404827,0.0229125
0.0421,901.067,0.00404598,0.0229125
0.0422,901.245,0.00404369,0.0229125
0.0423,901.422,0.00404139,0.0229125
0.0424,901.597,0.0040391,0.0229125
0.0425,901.772,0.00403681,0.0229125
0.0426,901.945,0.00403452,0.0229125
0.0427,902.117,0.00403223,0.0229125
0.0428,902.288,0.00402994,0.0229125
0.0429,902.458,0.00402765,0.0229125
0.043,902.627,0.00402536,0.0229125
0.0431,902.795,0.00402307,0.0229125
0.0432,902.962,0.00402077,0.0229125
0.0433,903.127,0.00401848,0.0229125
0.0434,903.292,0.00401619,0.0229124
0.0435,903.456,0.0040139,0.0229124
0.0436,903.619,0.00401161,0.0229124
0.0437,903.78,0.00400932,0.0229124
0.0438,903.941,0.00400703,0.0229124
0.0439,904.1,0.00400474,0.0229124
0.044,904.259,0.00400244,0.0229124
0.0441,904.416,0.00400015,0.0229124
0.0442,904.573,0.00399786,0.0229124
0.0443,904.728,0.00399557,0.0229124
0.0444,904.883,0.00399328,0.0229124
0.0445,905.036,0.00399099,0.0229123
0.0446,905.189,0.0039887,0.0229123
0.0447,905.341,0.00398641,0.0229123
0.0448,905.491,0.00398411,0.0229123
0.0449,905.641,0.00398182,0.0229122
0.045,905.79,0.00397953,0.0229122
0.0451,905.937,0.00397724,0.0229122
0.0452,906.084,0.00397495,0.0229122
0.0453,906.23,0.00397266,0.0229121
0.0454,906.375,0.00397037,0.0229121
0.0455,906.519,0.00396808,0.0229121
0.0456,906.663,0.00396579,0.0229121
0.0457,906.805,0.00396349,0.0229121
0.0458,906.946,0.0039612,0.022912
0.0459,907.087,0.00395891,0.022912
0.046,907.226,0.00395662,0.022912
0.0461,907.365,0.00395433,0.022912
0.0462,907.503,0.00395204,0.022912
0.0463,907.64,0.00394975,0.022912
0.0464,907.776,0.00394745,0.0229119
0.0465,907.911,0.00394516,0.0229119
0.0466,908.045,0.00394287,0.0229119
0.0467,908.179,0.00394058,0.0229119
0.0468,908.312,0.00393829,0.0229119
0.0469,908.444,0.003936,0.0229119
0.047,908.575,0.00393371,0.0229119
0.0471,908.705,0.00393142,0.0229119
0.0472,908.834,0.00392913,0.0229118
0.0473,908.963,0.00392683,0.0229118
0.0474,909.09,0.00392454,0.0229118
0.0475,909.217,0.00392225,0.0229118
0.0476,909.343,0.00391996,0.0229118
0.0477,909.469,0.00391767,0.0229118
0.0478,909.593,0.00391538,0.0229118
0.0479,909.717,0.00391309,0.0229118
0.048,909.84,0.0039108,0.0229118
0.0481,909.962,0.0039085,0.0229118
0.0482,910.083,0.00390621,0.0229117
0.0483,910.204,0.00390392,0.0229117
0.0484,910.324,0.00390163,0.0229117
0.0485,910.443,0.00389934,0.0229117
0.0486,910.561,0.00389705,0.0229117
0.0487,910.679,0.00389476,0.0229117
0.0488,910.795,0.00389247,0.0229117
0.0489,910.912,0.00389018,0.0229117
0.049,911.027,0.00388788,0.0229117
0.0491,911.142,0.00388559,0.0229117
0.0492,911.255,0.0038833,0.0229117
0.0493,911.369,0.00388101,0.0229117
0.0494,911.481,0.00387872,0.0229117
0.0495,911.593,0.00387643,0.0229117
0.0496,911.704,0.00387414,0.0229116
0.0497,911.814,0.00387185,0.0229116
0.0498,911.924,0.00386956,0.0229116
0.0499,912.033,0.00386726,0.0229116
0.05,912.141,0.00386497,0.0229116
0.0501,912.249,0.00386268,0.0229116
0.0502,912.356,0.00386039,0.0229116
0.0503,912.462,0.0038581,0.0229116
0.0504,912.567,0.00385581,0.0229116
0.0505,912.672,0.00385352,0.0229116
0.0506,912.776,0.00385123,0.0229116
0.0507,912.88,0.00384893,0.0229116
0.0508,912.983,0.00384664,0.0229116
0.0509,913.085,0.00384435,0.0229116
0.051,913.187,0.00384206,0.0229116
0.0511,913.288,0.00383977,0.0229116
0.0512,913.388,0.00383748,0.0229116
0.0513,913.488,0.00383519,0.0229116
0.0514,913.587,0.0038329,0.0229116
0.0515,913.685,0.00383061,0.0229116
0.0516,913.783,0.00382831,0.0229116
0.0517,913.88,0.00382602,0.0229116
0.0518,913.976,0.00382373,0.0229116
0.0519,914.072,0.00382144,0.0229116
0.052,914.168,0.00381915,0.0229116
0.0521,914.262,0.00381686,0.0229116
0.0522,914.357,0.00381457,0.0229115
0.0523,914.45,0.00381228,0.0229115
0.0524,914.543,0.00380999,0.0229115
0.0525,914.635,0.00380769,0.0229115
0.0526,914.727,0.0038054,0.0229115
0.0527,914.818,0.00380311,0.0229115
0.0528,914.909,0.00380082,0.0229115
0.0529,914.999,0.00379853,0.0229115
0.053,915.088,0.00379624,0.0229115
0.0531,915.177,0.00379395,0.0229115
0.0532,915.266,0.00379166,0.0229115
0.0533,915.353,0.00378936,0.0229115
0.0534,915.441,0.00378707,0.0229115
0.0535,915.527,0.00378478,0.0229115
0.0536,915.613,0.00378249,0.0229115
0.0537,915.699,0.0037802,0.0229115
0.0538,915.784,0.00377791,0.0229115
0.0539,915.868,0.00377562,0.0229115
0.054,915.952,0.00377333,0.0229115
0.0541,916.036,0.00377104,0.0229115
0.0542,916.119,0.00376874,0.0229115
0.0543,916.201,0.00376645,0.0229115
0.0544,916.283,0.00376416,0.0229115
0.0545,916.364,0.00376187,0.0229115
0.0546,916.445,0.00375958,0.0229115
0.0547,916.525,0.00375729,0.0229115
0.0548,916.605,0.003755,0.0229115
0.0549,916.684,0.00375271,0.0229115
0.055,916.763,0.00375042,0.0229115
0.0551,916.841,0.00374812,0.0229115
0.0552,916.919,0.00374583,0.0229115
0.0553,916.996,0.00374354,0.0229115
0.0554,917.073,0.00374125,0.0229115
0.0555,917.15,0.00373896,0.0229115
0.0556,917.225,0.00373667,0.0229115
0.0557,917.301,0.00373438,0.0229116
0.0558,917.376,0.00373209,0.0229116
0.0559,917.45,0.0037298,0.0229116
0.056,917.524,0.0037275,0.0229116
0.0561,917.597,0.00372521,0.0229116
0.0562,917.67,0.00372292,0.0229116
0.0563,917.743,0.00372063,0.0229116
0.0564,917.815,0.00371834,0.0229116
0.0565,917.887,0.00371605,0.0229116
0.0566,917.958,0.00371376,0.0229116
0.0567,918.029,0.00371147,0.0229116
0.0568,918.099,0.00370917,0.0229116
0.0569,918.169,0.00370688,0.0229116
0.057,918.238,0.00370459,0.0229116
0.0571,918.307,0.0037023,0.0229116
0.0572,918.375,0.00370001,0.0229116
0.0573,918.443,0.00369772,0.0229116
0.0574,918.511,0.00369543,0.0229116
0.0575,918.578,0.00369314,0.0229117
0.0576,918.645,0.00369085,0.0229117
0.0577,918.711,0.00368855,0.0229117
0.0578,918.777,0.00368626,0.0229117
0.0579,918.843,0.00368397,0.0229117
0.058,918.908,0.00368168,0.0229117
0.0581,918.973,0.00367939,0.0229117
0.0582,919.037,0.0036771,0.0229117
0.0583,919.101,0.00367481,0.0229117
0.0584,919.164,0.00367252,0.0229117
0.0585,919.227,0.00367023,0.0229117
0.0586,919.29,0.00366793,0.0229117
0.0587,919.352,0.00366564,0.0229117
0.0588,919.414,0.00366335,0.0229117
0.0589,919.476,0.00366106,0.0229117
0.059,919.537,0.00365877,0.0229117
0.0591,919.597,0.00365648,0.0229117
0.0592,919.658,0.00365419,0.0229117
0.0593,919.718,0.0036519,0.0229117
0.0594,919.777,0.0036496,0.0229117
0.0595,919.836,0.00364731,0.0229117
0.0596,919.895,0.00364502,0.0229117
0.0597,919.954,0.00364273,0.0229117
0.0598,920.012,0.00364044,0.0229117
0.0599,920.069,0.00363815,0.0229117
0.06,920.127,0.00363586,0.0229117
0.0601,920.184,0.00363357,0.0229117
0.0602,920.24,0.00363127,0.0229117
0.0603,920.296,0.00362898,0.0229117
0.0604,920.352,0.00362669,0.0229117
0.0605,920.408,0.0036244,0.0229117
0.0606,920.463,0.00362211,0.0229117
0.0607,920.518,0.00361982,0.0229117
0.0608,920.572,0.00361753,0.0229117
0.0609,920.626,0.00361524,0.0229117
0.061,920.68,0.00361294,0.0229117
0.0611,920.734,0.00361065,0.0229117
0.0612,920.787,0.00360836,0.0229117
0.0613,920.84,0.00360607,0.0229117
0.0614,920.892,0.00360378,0.0229117
0.0615,920.944,0.00360149,0.0229117
0.0616,920.996,0.0035992,0.0229117
0.0617,921.047,0.00359691,0.0229117
0.0618,921.098,0.00359462,0.0229117
0.0619,921.149,0.00359232,0.0229117
0.062,921.2,0.00359003,0.0229118
0.0621,921.25,0.00358774,0.0229118
0.0622,921.3,0.00358545,0.0229118
0.0623,921.349,0.00358316,0.0229118
0.0624,921.398,0.00358087,0.0229118
0.0625,921.447,0.00357858,0.0229118
0.0626,921.496,0.00357629,0.0229118
0.0627,921.544,0.003574,0.0229118
0.0628,921.592,0.0035717,0.0229118
0.0629,921.64,0.00356941,0.0229118
0.063,921.687,0.00356712,0.0229118
0.0631,921.734,0.00356483,0.0229118
0.0632,921.781,0.00356254,0.0229118
0.0633,921.828,0.00356025,0.0229118
0.0634,921.874,0.00355796,0.0229118
0.0635,921.92,0.00355567,0.0229118
0.0636,921.965,0.00355337,0.0229118
0.0637,922.011,0.00355108,0.0229118
0.0638,922.056,0.00354879,0.0229118
0.0639,922.1,0.0035465,0.0229118
0.064,922.145,0.00354421,0.0229118
0.0641,922.189,0.00354192,0.0229118
0.0642,922.233,0.00353963,0.0229118
0.0643,922.276,0.00353734,0.0229118
0.0644,922.32,0.00353505,0.0229118
0.0645,922.363,0.00353275,0.0229118
0.0646,922.406,0.00353046,0.0229118
0.0647,922.448,0.00352817,0.0229118
0.0648,922.49,0.00352588,0.0229118
0.0649,922.532,0.00352359,0.0229118
0.065,922.574,0.0035213,0.0229118
0.0651,922.615,0.00351901,0.0229118
0.0652,922.657,0.00351672,0.0229118
0.0653,922.698,0.00351443,0.0229118
0.0654,922.738,0.00351213,0.0229118
0.0655,922.779,0.00350984,0.0229118
0.0656,922.819,0.00350755,0.0229118
0.0657,922.859,0.00350526,0.0229118
0.0658,922.898,0.00350297,0.0229118
0.0659,922.938,0.00350068,0.0229118
0.066,922.977,0.00349839,0.0229118
0.0661,923.016,0.0034961,0.0229117
0.0662,923.054,0.0034938,0.0229117
0.0663,923.093,0.00349151,0.0229117
0.0664,923.131,0.00348922,0.0229116
0.0665,923.169,0.00348693,0.0229116
0.0666,923.206,0.00348464,0.0229116
0.0667,923.244,0.00348235,0.0229116
0.0668,923.281,0.00348006,0.0229116
0.0669,923.318,0.00347777,0.0229115
0.067,923.355,0.00347547,0.0229115
0.0671,923.391,0.00347318,0.0229115
0.0672,923.427,0.00347089,0.0229115
0.0673,923.464,0.0034686,0.0229115
0.0674,923.499,0.00346631,0.0229114
0.0675,923.535,0.00346402,0.0229114
0.0676,923.57,0.00346173,0.0229114
0.0677,923.605,0.00345944,0.0229114
0.0678,923.64,0.00345715,0.0229114
0.0679,923.675,0.00345486,0.0229113
0.068,923.709,0.00345256,0.0229113
0.0681,923.744,0.00345027,0.0229113
0.0682,923.778,0.00344798,0.0229113
0.0683,923.811,0.00344569,0.0229113
0.0684,923.845,0.0034434,0.0229113
0.0685,923.878,0.00344111,0.0229113
0.0686,923.912,0.00343882,0.0229113
0.0687,923.945,0.00343653,0.0229112
0.0688,923.977,0.00343423,0.0229112
0.0689,924.01,0.00343194,0.0229112
0.069,924.042,0.00342965,0.0229112
0.0691,924.074,0.00342736,0.0229112
0.0692,924.106,0.00342507,0.0229112
0.0693,924.138,0.00342278,0.0229112
0.0694,924.17,0.00342049,0.0229112
0.0695,924.201,0.0034182,0.0229112
0.0696,924.232,0.00341591,0.0229111
0.0697,924.263,0.00341361,0.0229111
0.0698,924.294,0.00341132,0.0229111
0.0699,924.324,0.00340903,0.0229111
0.07,924.355,0.00340674,0.0229111
0.0701,924.385,0.00340445,0.0229111
0.0702,924.415,0.00340216,0.0229111
0.0703,924.445,0.00339987,0.0229111
0.0704,924.474,0.00339758,0.0229111
0.0705,924.503,0.00339529,0.0229111
0.0706,924.533,0.00339299,0.0229111
0.0707,924.562,0.0033907,0.0229111
0.0708,924.591,0.00338841,0.022911
0.0709,924.619,0.00338612,0.022911
0.071,924.648,0.00338383,0.022911
0.0711,924.676,0.00338154,0.022911
0.0712,924.704,0.00337925,0.022911
0.0713,924.732,0.00337696,0.022911
0.0714,924.76,0.00337467,0.022911
0.0715,924.787,0.00337237,0.022911
0.0716,924.815,0.00337008,0.022911
0.0717,924.842,0.00336779,0.022911
0.0718,924.869,0.0033655,0.022911
0.0719,924.896,0.00336321,0.022911
0.072,924.923,0.00336092,0.022911
0.0721,924.949,0.00335863,0.022911
0.0722,924.976,0.00335634,0.022911
0.0723,925.002,0.00335405,0.022911
0.0724,925.028,0.00335176,0.022911
0.0725,925.054,0.00334946,0.022911
0.0726,925.08,0.00334717,0.022911
0.0727,925.105,0.00334488,0.022911
0.0728,925.131,0.00334259,0.022911
0.0729,925.156,0.0033403,0.022911
0.073,925.181,0.00333801,0.0229109
0.0731,925.206,0.00333572,0.0229109
0.0732,925.231,0.00333343,0.0229109
0.0733,925.255,0.00333113,0.0229109
0.0734,925.28,0.00332884,0.0229109
0.0735,925.304,0.00332655,0.0229109
0.0736,925.328,0.00332426,0.0229109
0.0737,925.352,0.00332197,0.0229109
0.0738,925.376,0.00331968,0.0229109
0.0739,925.4,0.00331739,0.0229109
0.074,925.423,0.0033151,0.0229109
0.0741,925.447,0.00331281,0.0229109
0.0742,925.47,0.00331051,0.0229109
0.0743,925.493,0.00330822,0.0229109
0.0744,925.516,0.00330593,0.0229109
0.0745,925.539,0.00330364,0.0229109
0.0746,925.561,0.00330135,0.0229109
0.0747,925.584,0.00329906,0.0229109
0.0748,925.606,0.00329677,0.0229109
0.0749,925.628,0.00329448,0.0229109
0.075,925.651,0.00329219,0.0229109
0.0751,925.673,0.0032899,0.0229109
0.0752,925.694,0.0032876,0.0229109
0.0753,925.716,0.00328531,0.0229109
0.0754,925.738,0.00328302,0.0229109
0.0755,925.759,0.00328073,0.0229109
0.0756,925.78,0.00327844,0.0229109
0.0757,925.801,0.00327615,0.0229109
0.0758,925.822,0.00327386,0.0229109
0.0759,925.843,0.00327157,0.0229109
0.076,925.864,0.00326928,0.0229109
0.0761,925.885,0.00326698,0.0229109
0.0762,925.905,0.00326469,0.0229109
0.0763,925.925,0.0032624,0.0229109
0.0764,925.946,0.00326011,0.0229109
0.0765,925.966,0.00325782,0.0229109
0.0766,925.986,0.00325553,0.0229109
0.0767,926.005,0.00325324,0.0229109
0.0768,926.025,0.00325095,0.0229109
0.0769,926.045,0.00324866,0.022911
0.077,926.064,0.00324636,0.0229113
0.0771,926.084,0.00324407,0.0229115
0.0772,926.103,0.00324178,0.0229117
0.0773,926.122,0.00323949,0.022912
0.0774,926.142,0.0032372,0.0229122
0.0775,926.161,0.00323491,0.0229124
0.0776,926.179,0.00323262,0.0229126
0.0777,926.198,0.00323033,0.0229128
0.0778,926.217,0.00322803,0.022913
0.0779,926.235,0.00322574,0.0229132
0.078,926.254,0.00322345,0.0229133
0.0781,926.272,0.00322116,0.0229135
0.0782,926.29,0.00321887,0.0229137
0.0783,926.308,0.00321658,0.0229138
0.0784,926.326,0.00321429,0.022914
0.0785,926.344,0.003212,0.0229142
0.0786,926.361,0.0032097,0.0229143
0.0787,926.379,0.00320741,0.0229144
0.0788,926.396,0.00320512,0.0229146
0.0789,926.414,0.00320283,0.0229147
0.079,926.431,0.00320054,0.0229149
0.0791,926.448,0.00319825,0.022915
0.0792,926.465,0.00319596,0.0229151
0.0793,926.482,0.00319366,0.0229152
0.0794,926.499,0.00319137,0.0229153
0.0795,926.515,0.00318908,0.0229155
0.0796,926.532,0.00318679,0.0229156
0.0797,926.548,0.0031845,0.0229157
0.0798,926.564,0.00318221,0.0229158
0.0799,926.581,0.00317991,0.0229159
0.08,926.597,0.00317762,0.022916
0.0801,926.613,0.00317533,0.0229161
0.0802,926.629,0.00317304,0.0229162
0.0803,926.645,0.00317075,0.0229162
0.0804,926.66,0.00316846,0.0229163
0.0805,926.676,0.00316616,0.0229164
0.0806,926.691,0.00316387,0.0229165
0.0807,926.707,0.00316158,0.0229166
0.0808,926.722,0.00315929,0.0229166
0.0809,926.737,0.003157,0.0229167
0.081,926.752,0.00315471,0.0229168
0.0811,926.767,0.00315242,0.0229169
0.0812,926.782,0.00315012,0.0229169
0.0813,926.797,0.00314783,0.022917
0.0814,926.812,0.00314554,0.0229171
0.0815,926.826,0.00314325,0.0229171
0.0816,926.841,0.00314096,0.0229172
0.0817,926.855,0.00313866,0.0229172
0.0818,926.87,0.00313637,0.0229173
0.0819,926.884,0.00313408,0.0229173
0.082,926.898,0.00313179,0.0229174
0.0821,926.912,0.0031295,0.0229174
0.0822,926.926,0.00312721,0.0229175
0.0823,926.94,0.00312491,0.0229175
0.0824,926.954,0.00312262,0.0229176
0.0825,926.968,0.00312033,0.0229176
0.0826,926.981,0.00311804,0.0229177
0.0827,926.995,0.00311575,0.0229177
0.0828,927.008,0.00311346,0.0229178
0.0829,927.022,0.00311116,0.0229178
0.083,927.035,0.00310887,0.0229178
0.0831,927.048,0.00310658,0.0229179
0.0832,927.061,0.00310429,0.0229179
0.0833,927.074,0.003102,0.0229179
0.0834,927.087,0.0030997,0.022918
0.0835,927.1,0.00309741,0.022918
0.0836,927.113,0.00309512,0.022918
0.0837,927.126,0.00309283,0.0229181
0.0838,927.138,0.00309054,0.0229181
0.0839,927.151,0.00308824,0.0229181
0.084,927.163,0.00308595,0.0229182
0.0841,927.176,0.00308366,0.0229182
0.0842,927.188,0.00308137,0.0229182
0.0843,927.2,0.00307908,0.0229182
0.0844,927.212,0.00307679,0.0229183
0.0845,927.224,0.00307449,0.0229183
0.0846,927.236,0.0030722,0.0229183
0.0847,927.248,0.00306991,0.0229183
0.0848,927.26,0.00306762,0.0229183
0.0849,927.272,0.00306533,0.0229184
0.085,927.283,0.00306304,0.0229184
0.0851,927.295,0.00306074,0.0229184
0.0852,927.307,0.00305845,0.0229184
0.0853,927.318,0.00305616,0.0229184
0.0854,927.329,0.00305387,0.0229185
0.0855,927.341,0.00305158,0.0229185
0.0856,927.352,0.00304928,0.0229185
0.0857,927.363,0.00304699,0.0229185
0.0858,927.374,0.0030447,0.0229185
0.0859,927.385,0.00304241,0.0229185
0.086,927.396,0.00304012,0.0229186
0.0861,927.407,0.00303782,0.0229186
0.0862,927.418,0.00303553,0.0229186
0.0863,927.429,0.00303324,0.0229186
0.0864,927.439,0.00303095,0.0229186
0.0865,927.45,0.00302866,0.0229186
0.0866,927.461,0.00302637,0.0229186
0.0867,927.471,0.00302407,0.0229187
0.0868,927.482,0.00302178,0.0229187
0.0869,927.492,0.00301949,0.0229187
0.087,927.502,0.0030172,0.0229187
0.0871,927.512,0.00301491,0.0229187
0.0872,927.523,0.00301261,0.0229187
0.0873,927.533,0.00301032,0.0229187
0.0874,927.543,0.00300803,0.0229187
0.0875,927.553,0.00300574,0.0229187
0.0876,927.562,0.00300345,0.0229188
0.0877,927.572,0.00300115,0.0229188
0.0878,927.582,0.00299886,0.0229188
0.0879,927.592,0.00299657,0.0229189
0.088,927.602,0.00299428,0.022919
0.0881,927.611,0.00299199,0.022919
0.0882,927.621,0.0029897,0.0229191
0.0883,927.63,0.0029874,0.0229192
0.0884,927.64,0.00298511,0.0229193
0.0885,927.649,0.00298282,0.0229193
0.0886,927.659,0.00298053,0.0229194
0.0887,927.668,0.00297824,0.0229195
0.0888,927.677,0.00297594,0.0229195
0.0889,927.686,0.00297365,0.0229196
0.089,927.695,0.00297136,0.0229196
0.0891,927.704,0.00296907,0.0229197
0.0892,927.713,0.00296678,0.0229198
0.0893,927.722,0.00296448,0.0229198
0.0894,927.731,0.00296219,0.0229199
0.0895,927.74,0.0029599,0.0229199
0.0896,927.749,0.00295761,0.02292
0.0897,927.757,0.00295532,0.02292
0.0898,927.766,0.00295302,0.0229201
0.0899,927.775,0.00295073,0.0229201
0.09,927.783,0.00294844,0.0229201
0.0901,927.792,0.00294615,0.0229202
0.0902,927.8,0.00294386,0.0229202
0.0903,927.808,0.00294156,0.0229203
0.0904,927.817,0.00293927,0.0229203
0.0905,927.825,0.00293698,0.0229203
0.0906,927.833,0.00293469,0.0229204
0.0907,927.841,0.0029324,0.0229204
0.0908,927.849,0.0029301,0.0229204
0.0909,927.857,0.00292781,0.0229205
0.091,927.865,0.00292552,0.0229205
0.0911,927.873,0.00292323,0.0229205
0.0912,927.881,0.00292094,0.0229206
0.0913,927.889,0.00291864,0.0229206
0.0914,927.897,0.00291635,0.0229206
0.0915,927.905,0.00291406,0.0229206
0.0916,927.912,0.00291177,0.0229207
0.0917,927.92,0.00290947,0.0229207
0.0918,927.928,0.00290718,0.0229207
0.0919,927.935,0.00290489,0.0229207
0.092,927.943,0.0029026,0.0229208
0.0921,927.95,0.00290031,0.0229208
0.0922,927.957,0.00289802,0.0229208
0.0923,927.965,0.00289572,0.0229208
0.0924,927.972,0.00289343,0.0229209
0.0925,927.979,0.00289114,0.0229209
0.0926,927.987,0.00288885,0.0229209
0.0927,927.994,0.00288655,0.0229209
0.0928,928.001,0.00288426,0.0229209
0.0929,928.008,0.00288197,0.022921
0.093,928.015,0.00287968,0.022921
0.0931,928.022,0.00287739,0.022921
0.0932,928.029,0.00287509,0.022921
0.0933,928.036,0.0028728,0.022921
0.0934,928.043,0.00287051,0.022921
0.0935,928.049,0.00286822,0.022921
0.0936,928.056,0.00286593,0.0229211
0.0937,928.063,0.00286363,0.0229211
0.0938,928.07,0.00286134,0.0229211
0.0939,928.076,0.00285905,0.0229211
0.094,928.083,0.00285676,0.0229211
0.0941,928.089,0.00285447,0.0229211
0.0942,928.096,0.00285217,0.0229211
0.0943,928.102,0.00284988,0.0229211
0.0944,928.109,0.00284759,0.0229212
0.0945,928.115,0.0028453,0.0229212
0.0946,928.121,0.002843,0.0229212
0.0947,928.128,0.00284071,0.0229212
0.0948,928.134,0.00283842,0.0229212
0.0949,928.14,0.00283613,0.0229212
0.095,928.146,0.00283384,0.0229212
0.0951,928.153,0.00283154,0.0229212
0.0952,928.159,0.00282925,0.0229212
0.0953,928.165,0.00282696,0.0229212
0.0954,928.171,0.00282467,0.0229213
0.0955,928.177,0.00282238,0.0229213
0.0956,928.183,0.00282008,0.0229213
0.0957,928.189,0.00281779,0.0229213
0.0958,928.195,0.0028155,0.0229213
0.0959,928.2,0.00281321,0.0229213
0.096,928.206,0.00281092,0.0229213
0.0961,928.212,0.00280862,0.0229213
0.0962,928.218,0.00280633,0.0229213
0.0963,928.223,0.00280404,0.0229213
0.0964,928.229,0.00280175,0.0229213
0.0965,928.235,0.00279945,0.0229213
0.0966,928.24,0.00279716,0.0229213
0.0967,928.246,0.00279487,0.0229213
0.0968,928.251,0.00279258,0.0229213
0.0969,928.257,0.00279029,0.0229214
0.097,928.262,0.00278799,0.0229214
0.0971,928.268,0.0027857,0.0229214
0.0972,928.273,0.00278341,0.0229214
0.0973,928.278,0.00278112,0.0229214
0.0974,928.284,0.00277883,0.0229214
0.0975,928.289,0.00277653,0.0229214
0.0976,928.294,0.00277424,0.0229214
0.0977,928.299,0.00277195,0.0229214
0.0978,928.304,0.00276966,0.0229214
0.0979,928.31,0.00276737,0.0229214
0.098,928.315,0.00276507,0.0229214
0.0981,928.32,0.00276278,0.0229214
0.0982,928.325,0.00276049,0.0229214
0.0983,928.33,0.0027582,0.0229214
0.0984,928.335,0.0027559,0.0229214
0.0985,928.34,0.00275361,0.0229214
0.0986,928.345,0.00275132,0.0229214
0.0987,928.35,0.00274903,0.022922
0.0988,928.356,0.00274673,0.0229234
0.0989,928.362,0.00274444,0.0229248
0.099,928.367,0.00274215,0.0229261
0.0991,928.373,0.00273986,0.0229274
0.0992,928.379,0.00273757,0.0229287
0.0993,928.384,0.00273527,0.0229299
0.0994,928.39,0.00273298,0.0229311
0.0995,928.395,0.00273069,0.0229322
0.0996,928.4,0.00272839,0.0229333
0.0997,928.406,0.0027261,0.0229344
0.0998,928.411,0.0027238,0.0229354
0.0999,928.416,0.00272151,0.0229364
0.1,928.421,0.00271922,0.0229374
