Date [s],Average:Temperature (Study 01 - Particles) [K],Max:Particle Z-Coordinate (Study 01 - Particles) [m],Min:Absolute Translational Velocity (Study 01 - Particles) [m/s]
0.0015,529.844,0.00489686,0.000285447
0.0016,532.161,0.0048968,0.000863658
0.0017,534.331,0.00489669,0.00143041
0.0018,536.388,0.00489652,0.00198642
0.0019,538.347,0.00489629,0.0025312
0.002,540.218,0.00489601,0.00306434
0.0021,542.011,0.00489568,0.00358667
0.0022,543.73,0.00489529,0.00409784
0.0023,545.378,0.00489486,0.00459752
0.0024,546.963,0.00489437,0.00508656
0.0025,548.487,0.00489384,0.00556467
0.0026,549.951,0.00489326,0.00603161
0.0027,551.361,0.00489263,0.0064882
0.0028,552.718,0.00489196,0.00693421
0.0029,554.024,0.00489125,0.00736977
0.003,555.28,0.00489049,0.00779471
0.0031,556.491,0.00488969,0.00820982
0.0032,557.656,0.00488885,0.00861492
0.0033,558.778,0.00488797,0.00900987
0.0034,559.859,0.00488705,0.00939544
0.0035,560.9,0.00488609,0.00977148
0.0036,561.901,0.00488509,0.0101379
0.0037,562.867,0.00488406,0.0104954
0.0038,563.796,0.00488299,0.0108438
0.0039,564.69,0.00488189,0.0111832
0.004,565.551,0.00488076,0.0115141
0.0041,566.38,0.00487959,0.0118365
0.0042,567.178,0.00487839,0.0121503
0.0043,567.946,0.00487716,0.0124562
0.0044,568.685,0.0048759,0.012754
0.0045,569.396,0.00487461,0.0130441
0.0046,570.079,0.00487329,0.0133262
0.0047,570.737,0.00487194,0.0136011
0.0048,571.369,0.00487057,0.0138686
0.0049,571.977,0.00486917,0.0141288
0.005,572.561,0.00486775,0.0143821
0.0051,573.123,0.00486629,0.0146286
0.0052,573.662,0.00486482,0.0148682
0.0053,574.18,0.00486332,0.0151015
0.0054,574.678,0.0048618,0.0153284
0.0055,575.156,0.00486026,0.0155489
0.0056,575.614,0.00485869,0.0157635
0.0057,576.055,0.0048571,0.0159722
0.0058,576.477,0.0048555,0.016175
0.0059,576.882,0.00485387,0.0163721
0.006,577.27,0.00485222,0.0165639
0.0061,577.642,0.00485056,0.0167502
0.0062,577.999,0.00484887,0.0169313
0.0063,578.34,0.00484717,0.0171073
0.0064,578.667,0.00484545,0.0172784
0.0065,578.98,0.00484371,0.0174445
0.0066,579.279,0.00484196,0.0176061
0.0067,579.566,0.00484019,0.017763
0.0068,579.839,0.00483841,0.0179154
0.0069,580.101,0.00483661,0.0180635
0.007,580.351,0.0048348,0.0182074
0.0071,580.589,0.00483297,0.0183472
0.0072,580.816,0.00483113,0.0184829
0.0073,581.033,0.00482927,0.0186148
0.0074,581.24,0.0048274,0.0187428
0.0075,581.437,0.00482552,0.0188671
0.0076,581.624,0.00482363,0.0189879
0.0077,581.802,0.00482173,0.0191051
0.0078,581.971,0.00481981,0.0192189
0.0079,582.132,0.00481788,0.0193295
0.008,582.285,0.00481594,0.0194369
0.0081,582.43,0.004814,0.019541
0.0082,582.567,0.00481204,0.0196422
0.0083,582.697,0.00481007,0.0197404
0.0084,582.819,0.00480809,0.0198357
0.0085,582.935,0.0048061,0.0199282
0.0086,583.045,0.0048041,0.0200181
0.0087,583.148,0.0048021,0.0201053
0.0088,583.245,0.00480008,0.0201899
0.0089,583.336,0.00479806,0.020272
0.009,583.421,0.00479603,0.0203517
0.0091,583.501,0.00479399,0.0204291
0.0092,583.576,0.00479194,0.0205041
0.0093,583.646,0.00478989,0.020577
0.0094,583.711,0.00478783,0.0206477
0.0095,583.771,0.00478576,0.0207163
0.0096,583.827,0.00478368,0.0207829
0.0097,583.879,0.0047816,0.0208474
0.0098,583.926,0.00477951,0.0209101
0.0099,583.97,0.00477742,0.020971
0.01,584.009,0.00477532,0.02103
0.0101,584.045,0.00477321,0.0210872
0.0102,584.078,0.0047711,0.0211428
0.0103,584.107,0.00476898,0.0211967
0.0104,584.133,0.00476686,0.0212489
0.0105,584.156,0.00476474,0.0212997
0.0106,584.176,0.0047626,0.0213489
0.0107,584.193,0.00476047,0.0213966
0.0108,584.207,0.00475832,0.0214429
0.0109,584.219,0.00475618,0.0214878
0.011,584.228,0.00475403,0.0215314
0.0111,584.235,0.00475187,0.0215737
0.0112,584.239,0.00474971,0.0216147
0.0113,584.242,0.00474755,0.0216543
0.0114,584.241,0.00474538,0.0216927
0.0115,584.239,0.00474321,0.0217299
0.0116,584.236,0.00474103,0.0217661
0.0117,584.23,0.00473886,0.0218011
0.0118,584.222,0.00473667,0.0218351
0.0119,584.213,0.00473449,0.021868
0.012,584.202,0.0047323,0.0219
0.0121,584.19,0.00473011,0.021931
0.0122,584.177,0.00472791,0.0219611
0.0123,584.162,0.00472572,0.0219903
0.0124,584.145,0.00472352,0.0220186
0.0125,584.128,0.00472131,0.022046
0.0126,584.109,0.00471911,0.0220726
0.0127,584.09,0.0047169,0.0220984
0.0128,584.069,0.00471469,0.0221235
0.0129,584.047,0.00471247,0.0221478
0.013,584.024,0.00471026,0.0221713
0.0131,584.001,0.00470804,0.0221941
0.0132,583.976,0.00470582,0.0222163
0.0133,583.951,0.0047036,0.0222377
0.0134,583.925,0.00470137,0.0222586
0.0135,583.898,0.00469914,0.0222788
0.0136,583.871,0.00469692,0.0222983
0.0137,583.843,0.00469469,0.0223173
0.0138,583.815,0.00469245,0.0223358
0.0139,583.786,0.00469022,0.0223536
0.014,583.756,0.00468798,0.0223709
0.0141,583.726,0.00468574,0.0223877
0.0142,583.695,0.0046835,0.022404
0.0143,583.665,0.00468126,0.0224198
0.0144,583.633,0.00467902,0.0224351
0.0145,583.602,0.00467678,0.02245
0.0146,583.57,0.00467453,0.0224644
0.0147,583.538,0.00467228,0.0224783
0.0148,583.506,0.00467003,0.0224919
0.0149,583.473,0.00466779,0.022505
0.015,583.44,0.00466553,0.0225177
0.0151,583.407,0.00466328,0.0225301
0.0152,583.374,0.00466103,0.022542
0.0153,583.341,0.00465877,0.0225537
0.0154,583.307,0.00465652,0.0225649
0.0155,583.274,0.00465426,0.0225758
0.0156,583.24,0.004652,0.0225864
0.0157,583.206,0.00464974,0.0225967
0.0158,583.173,0.00464748,0.0226066
0.0159,583.139,0.00464522,0.0226163
0.016,583.105,0.00464296,0.0226256
0.0161,583.072,0.0046407,0.0226347
0.0162,583.038,0.00463843,0.0226435
0.0163,583.004,0.00463617,0.022652
0.0164,582.971,0.0046339,0.0226603
0.0165,582.937,0.00463164,0.0226683
0.0166,582.904,0.00462937,0.0226761
0.0167,582.87,0.0046271,0.0226836
0.0168,582.837,0.00462483,0.0226909
0.0169,582.804,0.00462256,0.022698
0.017,582.771,0.00462029,0.0227049
0.0171,582.738,0.00461802,0.0227115
0.0172,582.705,0.00461575,0.022718
0.0173,582.672,0.00461348,0.0227242
0.0174,582.639,0.0046112,0.0227303
0.0175,582.607,0.00460893,0.0227362
0.0176,582.575,0.00460666,0.0227419
0.0177,582.543,0.00460438,0.0227474
0.0178,582.511,0.00460211,0.0227528
0.0179,582.479,0.00459983,0.022758
0.018,582.448,0.00459756,0.0227631
0.0181,582.416,0.00459528,0.0227679
0.0182,582.385,0.004593,0.0227727
0.0183,582.354,0.00459073,0.0227773
0.0184,582.324,0.00458845,0.0227817
0.0185,582.293,0.00458617,0.0227861
0.0186,582.263,0.00458389,0.0227903
0.0187,582.233,0.00458161,0.0227943
0.0188,582.203,0.00457933,0.0227983
0.0189,582.173,0.00457705,0.0228021
0.019,582.144,0.00457477,0.0228058
0.0191,582.115,0.00457249,0.0228094
0.0192,582.086,0.00457021,0.0228129
0.0193,582.057,0.00456793,0.0228162
0.0194,582.029,0.00456565,0.0228195
0.0195,582,0.00456336,0.0228227
0.0196,581.972,0.00456108,0.0228257
0.0197,581.945,0.0045588,0.0228287
0.0198,581.917,0.00455652,0.0228316
0.0199,581.89,0.00455423,0.0228344
0.02,581.863,0.00455195,0.0228371
0.0201,581.836,0.00454967,0.0228398
0.0202,581.81,0.00454738,0.0228423
0.0203,581.783,0.0045451,0.0228448
0.0204,581.757,0.00454281,0.0228472
0.0205,581.732,0.00454053,0.0228495
0.0206,581.706,0.00453824,0.0228518
0.0207,581.681,0.00453596,0.022854
0.0208,581.656,0.00453367,0.0228561
0.0209,581.631,0.00453139,0.0228582
0.021,581.607,0.0045291,0.0228602
0.0211,581.582,0.00452681,0.0228621
0.0212,581.558,0.00452453,0.022864
0.0213,581.535,0.00452224,0.0228658
0.0214,581.511,0.00451996,0.0228676
0.0215,581.488,0.00451767,0.0228693
0.0216,581.465,0.00451538,0.0228709
0.0217,581.442,0.00451309,0.0228725
0.0218,581.419,0.00451081,0.0228741
0.0219,581.397,0.00450852,0.0228756
0.022,581.375,0.00450623,0.0228771
0.0221,581.353,0.00450394,0.0228785
0.0222,581.332,0.00450166,0.0228799
0.0223,581.31,0.00449937,0.0228812
0.0224,581.289,0.00449708,0.0228825
0.0225,581.268,0.00449479,0.0228837
0.0226,581.248,0.0044925,0.0228849
0.0227,581.227,0.00449021,0.0228861
0.0228,581.207,0.00448793,0.0228872
0.0229,581.187,0.00448564,0.0228883
0.023,581.167,0.00448335,0.0228893
0.0231,581.148,0.00448106,0.0228904
0.0232,581.128,0.00447877,0.0228914
0.0233,581.109,0.00447648,0.0228923
0.0234,581.091,0.00447419,0.0228933
0.0235,581.072,0.0044719,0.0228942
0.0236,581.054,0.00446961,0.0228951
0.0237,581.035,0.00446732,0.0228959
0.0238,581.017,0.00446503,0.0228967
0.0239,581,0.00446274,0.0228975
0.024,580.982,0.00446045,0.0228983
0.0241,580.965,0.00445816,0.0228991
0.0242,580.948,0.00445587,0.0228998
0.0243,580.931,0.00445358,0.0229005
0.0244,580.914,0.00445129,0.0229012
0.0245,580.897,0.004449,0.0229019
0.0246,580.881,0.00444671,0.0229025
0.0247,580.865,0.00444442,0.0229031
0.0248,580.849,0.00444213,0.0229037
0.0249,580.833,0.00443984,0.0229043
0.025,580.818,0.00443755,0.0229049
0.0251,580.803,0.00443526,0.0229055
0.0252,580.787,0.00443297,0.022906
0.0253,580.772,0.00443068,0.0229065
0.0254,580.758,0.00442839,0.022907
0.0255,580.743,0.0044261,0.0229075
0.0256,580.729,0.00442381,0.022908
0.0257,580.715,0.00442152,0.0229084
0.0258,580.7,0.00441923,0.0229089
0.0259,580.687,0.00441694,0.0229093
0.026,580.673,0.00441464,0.0229097
0.0261,580.659,0.00441235,0.0229101
0.0262,580.646,0.00441006,0.0229105
0.0263,580.633,0.00440777,0.0229109
0.0264,580.62,0.00440548,0.0229113
0.0265,580.607,0.00440319,0.0229116
0.0266,580.594,0.0044009,0.022912
0.0267,580.582,0.00439861,0.0229123
0.0268,580.57,0.00439631,0.0229127
0.0269,580.557,0.00439402,0.022913
0.027,580.545,0.00439173,0.0229133
0.0271,580.533,0.00438944,0.0229136
0.0272,580.522,0.00438715,0.0229139
0.0273,580.51,0.00438486,0.0229141
0.0274,580.499,0.00438257,0.0229144
0.0275,580.487,0.00438028,0.0229147
0.0276,580.476,0.00437798,0.0229149
0.0277,580.465,0.00437569,0.0229152
0.0278,580.455,0.0043734,0.0229154
0.0279,580.444,0.00437111,0.0229157
0.028,580.433,0.00436882,0.0229159
0.0281,580.423,0.00436653,0.0229161
0.0282,580.413,0.00436424,0.0229163
0.0283,580.402,0.00436194,0.0229165
0.0284,580.392,0.00435965,0.0229167
0.0285,580.383,0.00435736,0.0229169
0.0286,580.373,0.00435507,0.0229171
0.0287,580.363,0.00435278,0.0229173
0.0288,580.354,0.00435049,0.0229175
0.0289,580.344,0.00434819,0.0229176
0.029,580.335,0.0043459,0.0229178
0.0291,580.326,0.00434361,0.022918
0.0292,580.317,0.00434132,0.0229181
0.0293,580.308,0.00433903,0.0229183
0.0294,580.299,0.00433673,0.0229184
0.0295,580.291,0.00433444,0.0229185
0.0296,580.282,0.00433215,0.0229187
0.0297,580.274,0.00432986,0.0229188
0.0298,580.266,0.00432757,0.0229189
0.0299,580.257,0.00432527,0.0229191
0.03,580.249,0.00432298,0.0229192
0.0301,580.241,0.00432069,0.0229193
0.0302,580.233,0.0043184,0.0229194
0.0303,580.226,0.00431611,0.0229195
0.0304,580.218,0.00431382,0.0229196
0.0305,580.21,0.00431152,0.0229197
0.0306,580.203,0.00430923,0.0229198
0.0307,580.196,0.00430694,0.0229199
0.0308,580.188,0.00430465,0.02292
0.0309,580.181,0.00430235,0.0229201
0.031,580.174,0.00430006,0.0229202
0.0311,580.167,0.00429777,0.0229203
0.0312,580.16,0.00429548,0.0229204
0.0313,580.154,0.00429319,0.0229205
0.0314,580.147,0.0042909,0.0229206
0.0315,580.14,0.0042886,0.0229206
0.0316,580.134,0.00428631,0.0229207
0.0317,580.128,0.00428402,0.0229208
0.0318,580.121,0.00428173,0.0229208
0.0319,580.115,0.00427943,0.0229209
0.032,580.109,0.00427714,0.022921
0.0321,580.103,0.00427485,0.022921
0.0322,580.097,0.00427256,0.0229211
0.0323,580.091,0.00427027,0.0229212
0.0324,580.085,0.00426797,0.0229212
0.0325,580.079,0.00426568,0.0229213
0.0326,580.074,0.00426339,0.0229213
0.0327,580.068,0.0042611,0.0229214
0.0328,580.063,0.00425881,0.0229214
0.0329,580.057,0.00425651,0.0229215
0.033,580.052,0.00425422,0.0229215
0.0331,580.047,0.00425193,0.0229216
0.0332,580.041,0.00424964,0.0229216
0.0333,580.036,0.00424735,0.0229216
0.0334,580.031,0.00424505,0.0229216
0.0335,580.026,0.00424276,0.0229216
0.0336,580.021,0.00424047,0.0229215
0.0337,580.016,0.00423818,0.0229215
0.0338,580.011,0.00423588,0.0229215
0.0339,580.006,0.00423359,0.0229215
0.034,580.002,0.0042313,0.0229215
0.0341,579.997,0.00422901,0.0229215
0.0342,579.992,0.00422671,0.0229215
0.0343,579.988,0.00422442,0.0229215
0.0344,579.983,0.00422213,0.0229214
0.0345,579.979,0.00421984,0.0229214
0.0346,579.975,0.00421755,0.0229214
0.0347,579.97,0.00421525,0.0229214
0.0348,579.966,0.00421296,0.0229214
0.0349,579.962,0.00421067,0.0229214
0.035,579.958,0.00420838,0.0229214
0.0351,579.954,0.00420609,0.0229214
0.0352,579.95,0.00420379,0.0229214
0.0353,579.946,0.0042015,0.0229214
0.0354,579.942,0.00419921,0.0229214
0.0355,579.938,0.00419692,0.0229213
0.0356,579.935,0.00419463,0.0229213
0.0357,579.931,0.00419233,0.0229213
0.0358,579.927,0.00419004,0.0229213
0.0359,579.924,0.00418775,0.0229213
0.036,579.92,0.00418546,0.0229213
0.0361,579.917,0.00418316,0.0229213
0.0362,579.913,0.00418087,0.0229213
0.0363,579.91,0.00417858,0.0229213
0.0364,579.906,0.00417629,0.0229213
0.0365,579.903,0.004174,0.0229213
0.0366,579.9,0.0041717,0.0229213
0.0367,579.897,0.00416941,0.0229213
0.0368,579.893,0.00416712,0.0229213
0.0369,579.89,0.00416483,0.0229213
0.037,579.887,0.00416254,0.0229213
0.0371,579.884,0.00416024,0.0229212
0.0372,579.881,0.00415795,0.0229212
0.0373,579.878,0.00415566,0.0229212
0.0374,579.875,0.00415337,0.0229212
0.0375,579.873,0.00415108,0.0229212
0.0376,579.87,0.00414878,0.0229212
0.0377,579.867,0.00414649,0.0229212
0.0378,579.864,0.0041442,0.0229212
0.0379,579.862,0.00414191,0.0229212
0.038,579.859,0.00413961,0.0229212
0.0381,579.856,0.00413732,0.0229212
0.0382,579.854,0.00413503,0.0229212
0.0383,579.851,0.00413274,0.0229212
0.0384,579.849,0.00413045,0.0229212
0.0385,579.846,0.00412815,0.0229212
0.0386,579.844,0.00412586,0.0229212
0.0387,579.841,0.00412357,0.0229212
0.0388,579.839,0.00412128,0.0229212
0.0389,579.837,0.00411899,0.0229212
0.039,579.834,0.00411669,0.0229212
0.0391,579.832,0.0041144,0.0229212
0.0392,579.83,0.00411211,0.0229212
0.0393,579.828,0.00410982,0.0229212
0.0394,579.825,0.00410752,0.0229212
0.0395,579.823,0.00410523,0.0229212
0.0396,579.821,0.00410294,0.0229212
0.0397,579.819,0.00410065,0.0229212
0.0398,579.817,0.00409836,0.0229212
0.0399,579.815,0.00409606,0.0229212
0.04,579.813,0.00409377,0.0229212
0.0401,579.811,0.00409148,0.0229212
0.0402,579.809,0.00408919,0.0229211
0.0403,579.807,0.0040869,0.0229211
0.0404,579.805,0.0040846,0.0229211
0.0405,579.804,0.00408231,0.0229211
0.0406,579.802,0.00408002,0.0229211
0.0407,579.8,0.00407773,0.0229211
0.0408,579.798,0.00407544,0.0229211
0.0409,579.796,0.00407314,0.0229211
0.041,579.795,0.00407085,0.0229211
0.0411,579.793,0.00406856,0.0229211
0.0412,579.791,0.00406627,0.0229211
0.0413,579.79,0.00406397,0.0229211
0.0414,579.788,0.00406168,0.0229211
0.0415,579.786,0.00405939,0.0229211
0.0416,579.785,0.0040571,0.0229211
0.0417,579.783,0.00405481,0.0229211
0.0418,579.782,0.00405251,0.0229211
0.0419,579.78,0.00405022,0.0229211
0.042,579.779,0.00404793,0.0229211
0.0421,579.777,0.00404564,0.0229211
0.0422,579.776,0.00404335,0.0229211
0.0423,579.774,0.00404105,0.0229211
0.0424,579.773,0.00403876,0.0229211
0.0425,579.772,0.00403647,0.0229211
0.0426,579.77,0.00403418,0.0229211
0.0427,579.769,0.00403189,0.0229211
0.0428,579.767,0.00402959,0.0229211
0.0429,579.766,0.0040273,0.0229211
0.043,579.765,0.00402501,0.0229211
0.0431,579.764,0.00402272,0.0229211
0.0432,579.762,0.00402042,0.0229211
0.0433,579.761,0.00401813,0.0229211
0.0434,579.76,0.00401584,0.0229211
0.0435,579.759,0.00401355,0.0229211
0.0436,579.757,0.00401126,0.0229211
0.0437,579.756,0.00400896,0.0229211
0.0438,579.755,0.00400667,0.0229211
0.0439,579.754,0.00400438,0.0229211
0.044,579.753,0.00400209,0.0229211
0.0441,579.752,0.0039998,0.0229211
0.0442,579.751,0.0039975,0.0229211
0.0443,579.75,0.00399521,0.0229211
0.0444,579.748,0.00399292,0.022921
0.0445,579.747,0.00399063,0.022921
0.0446,579.746,0.00398834,0.022921
0.0447,579.745,0.00398604,0.022921
0.0448,579.744,0.00398375,0.0229209
0.0449,579.743,0.00398146,0.0229209
0.045,579.742,0.00397917,0.0229209
0.0451,579.741,0.00397687,0.0229209
0.0452,579.74,0.00397458,0.0229208
0.0453,579.739,0.00397229,0.0229208
0.0454,579.738,0.00397,0.0229208
0.0455,579.737,0.00396771,0.0229208
0.0456,579.736,0.00396541,0.0229208
0.0457,579.736,0.00396312,0.0229208
0.0458,579.735,0.00396083,0.0229207
0.0459,579.734,0.00395854,0.0229207
0.046,579.733,0.00395625,0.0229207
0.0461,579.732,0.00395395,0.0229207
0.0462,579.731,0.00395166,0.0229207
0.0463,579.73,0.00394937,0.0229207
0.0464,579.73,0.00394708,0.0229206
0.0465,579.729,0.00394478,0.0229206
0.0466,579.728,0.00394249,0.0229206
0.0467,579.727,0.0039402,0.0229206
0.0468,579.726,0.00393791,0.0229206
0.0469,579.726,0.00393562,0.0229206
0.047,579.725,0.00393333,0.0229206
0.0471,579.724,0.00393103,0.0229206
0.0472,579.724,0.00392874,0.0229206
0.0473,579.723,0.00392645,0.0229205
0.0474,579.722,0.00392416,0.0229205
0.0475,579.721,0.00392187,0.0229205
0.0476,579.721,0.00391957,0.0229205
0.0477,579.72,0.00391728,0.0229205
0.0478,579.719,0.00391499,0.0229205
0.0479,579.719,0.0039127,0.0229205
0.048,579.718,0.0039104,0.0229205
0.0481,579.718,0.00390811,0.0229205
0.0482,579.717,0.00390582,0.0229205
0.0483,579.716,0.00390353,0.0229205
0.0484,579.716,0.00390124,0.0229204
0.0485,579.715,0.00389894,0.0229204
0.0486,579.715,0.00389665,0.0229204
0.0487,579.714,0.00389436,0.0229204
0.0488,579.713,0.00389207,0.0229204
0.0489,579.713,0.00388978,0.0229204
0.049,579.712,0.00388748,0.0229204
0.0491,579.712,0.00388519,0.0229204
0.0492,579.711,0.0038829,0.0229204
0.0493,579.711,0.00388061,0.0229204
0.0494,579.71,0.00387832,0.0229204
0.0495,579.71,0.00387602,0.0229204
0.0496,579.709,0.00387373,0.0229204
0.0497,579.709,0.00387144,0.0229204
0.0498,579.708,0.00386915,0.0229204
0.0499,579.708,0.00386686,0.0229204
0.05,579.707,0.00386456,0.0229204
0.0501,579.707,0.00386227,0.0229203
0.0502,579.706,0.00385998,0.0229203
0.0503,579.706,0.00385769,0.0229203
0.0504,579.705,0.0038554,0.0229203
0.0505,579.705,0.0038531,0.0229203
0.0506,579.705,0.00385081,0.0229203
0.0507,579.704,0.00384852,0.0229203
0.0508,579.704,0.00384623,0.0229203
0.0509,579.703,0.00384394,0.0229203
0.051,579.703,0.00384164,0.0229203
0.0511,579.703,0.00383935,0.0229203
0.0512,579.702,0.00383706,0.0229203
0.0513,579.702,0.00383477,0.0229203
0.0514,579.701,0.00383248,0.0229203
0.0515,579.701,0.00383018,0.0229203
0.0516,579.701,0.00382789,0.0229203
0.0517,579.7,0.0038256,0.0229203
0.0518,579.7,0.00382331,0.0229203
0.0519,579.7,0.00382101,0.0229203
0.052,579.699,0.00381872,0.0229203
0.0521,579.699,0.00381643,0.0229203
0.0522,579.698,0.00381414,0.0229203
0.0523,579.698,0.00381185,0.0229203
0.0524,579.698,0.00380956,0.0229203
0.0525,579.697,0.00380726,0.0229203
0.0526,579.697,0.00380497,0.0229203
0.0527,579.697,0.00380268,0.0229203
0.0528,579.697,0.00380039,0.0229203
0.0529,579.696,0.00379809,0.0229203
0.053,579.696,0.0037958,0.0229203
0.0531,579.696,0.00379351,0.0229203
0.0532,579.695,0.00379122,0.0229203
0.0533,579.695,0.00378893,0.0229203
0.0534,579.695,0.00378664,0.0229203
0.0535,579.694,0.00378434,0.0229203
0.0536,579.694,0.00378205,0.0229203
0.0537,579.694,0.00377976,0.0229203
0.0538,579.694,0.00377747,0.0229203
0.0539,579.693,0.00377517,0.0229203
0.054,579.693,0.00377288,0.0229203
0.0541,579.693,0.00377059,0.0229202
0.0542,579.693,0.0037683,0.0229202
0.0543,579.692,0.00376601,0.0229202
0.0544,579.692,0.00376371,0.0229202
0.0545,579.692,0.00376142,0.0229202
0.0546,579.692,0.00375913,0.0229202
0.0547,579.691,0.00375684,0.0229202
0.0548,579.691,0.00375455,0.0229202
0.0549,579.691,0.00375225,0.0229202
0.055,579.691,0.00374996,0.0229202
0.0551,579.69,0.00374767,0.0229203
0.0552,579.69,0.00374538,0.0229203
0.0553,579.69,0.00374309,0.0229203
0.0554,579.69,0.00374079,0.0229203
0.0555,579.69,0.0037385,0.0229204
0.0556,579.69,0.00373621,0.0229204
0.0557,579.689,0.00373392,0.0229204
0.0558,579.689,0.00373163,0.0229204
0.0559,579.689,0.00372933,0.0229204
0.056,579.689,0.00372704,0.0229205
0.0561,579.689,0.00372475,0.0229205
0.0562,579.689,0.00372246,0.0229205
0.0563,579.688,0.00372017,0.0229205
0.0564,579.688,0.00371787,0.0229205
0.0565,579.688,0.00371558,0.0229206
0.0566,579.688,0.00371329,0.0229206
0.0567,579.688,0.003711,0.0229206
0.0568,579.688,0.0037087,0.0229206
0.0569,579.687,0.00370641,0.0229206
0.057,579.687,0.00370412,0.0229206
0.0571,579.687,0.00370183,0.0229206
0.0572,579.687,0.00369954,0.0229207
0.0573,579.687,0.00369725,0.0229207
0.0574,579.687,0.00369495,0.0229207
0.0575,579.687,0.00369266,0.0229207
0.0576,579.686,0.00369037,0.0229207
0.0577,579.686,0.00368808,0.0229207
0.0578,579.686,0.00368578,0.0229207
0.0579,579.686,0.00368349,0.0229207
0.058,579.686,0.0036812,0.0229208
0.0581,579.686,0.00367891,0.0229208
0.0582,579.686,0.00367662,0.0229208
0.0583,579.685,0.00367432,0.0229208
0.0584,579.685,0.00367203,0.0229208
0.0585,579.685,0.00366974,0.0229208
0.0586,579.685,0.00366745,0.0229208
0.0587,579.685,0.00366516,0.0229208
0.0588,579.685,0.00366286,0.0229208
0.0589,579.685,0.00366057,0.0229208
0.059,579.685,0.00365828,0.0229208
0.0591,579.684,0.00365599,0.0229209
0.0592,579.684,0.0036537,0.0229209
0.0593,579.684,0.0036514,0.0229209
0.0594,579.684,0.00364911,0.0229209
0.0595,579.684,0.00364682,0.0229209
0.0596,579.684,0.00364453,0.0229209
0.0597,579.684,0.00364223,0.0229209
0.0598,579.684,0.00363994,0.0229209
0.0599,579.683,0.00363765,0.0229209
0.06,579.683,0.00363536,0.0229209
0.0601,579.683,0.00363307,0.0229209
0.0602,579.683,0.00363078,0.0229209
0.0603,579.683,0.00362848,0.0229209
0.0604,579.683,0.00362619,0.0229209
0.0605,579.683,0.0036239,0.0229209
0.0606,579.683,0.00362161,0.0229209
0.0607,579.683,0.00361931,0.0229209
0.0608,579.682,0.00361702,0.022921
0.0609,579.682,0.00361473,0.022921
0.061,579.682,0.00361244,0.022921
0.0611,579.682,0.00361015,0.022921
0.0612,579.682,0.00360785,0.022921
0.0613,579.682,0.00360556,0.022921
0.0614,579.682,0.00360327,0.022921
0.0615,579.682,0.00360098,0.022921
0.0616,579.682,0.00359869,0.022921
0.0617,579.682,0.00359639,0.022921
0.0618,579.682,0.0035941,0.022921
0.0619,579.681,0.00359181,0.022921
0.062,579.681,0.00358952,0.022921
0.0621,579.681,0.00358723,0.022921
0.0622,579.681,0.00358493,0.022921
0.0623,579.681,0.00358264,0.022921
0.0624,579.681,0.00358035,0.022921
0.0625,579.681,0.00357806,0.022921
0.0626,579.681,0.00357576,0.022921
0.0627,579.681,0.00357347,0.022921
0.0628,579.681,0.00357118,0.022921
0.0629,579.681,0.00356889,0.022921
0.063,579.681,0.0035666,0.022921
0.0631,579.68,0.0035643,0.022921
0.0632,579.68,0.00356201,0.022921
0.0633,579.68,0.00355972,0.022921
0.0634,579.68,0.00355743,0.022921
0.0635,579.68,0.00355514,0.022921
0.0636,579.68,0.00355284,0.022921
0.0637,579.68,0.00355055,0.022921
0.0638,579.68,0.00354826,0.022921
0.0639,579.68,0.00354597,0.022921
0.064,579.68,0.00354368,0.022921
0.0641,579.68,0.00354138,0.022921
0.0642,579.68,0.00353909,0.022921
0.0643,579.68,0.0035368,0.022921
0.0644,579.68,0.00353451,0.022921
0.0645,579.679,0.00353221,0.0229211
0.0646,579.679,0.00352992,0.0229211
0.0647,579.679,0.00352763,0.0229211
0.0648,579.679,0.00352534,0.0229211
0.0649,579.679,0.00352305,0.0229211
0.065,579.679,0.00352075,0.0229211
0.0651,579.679,0.00351846,0.0229211
0.0652,579.679,0.00351617,0.0229211
0.0653,579.679,0.00351388,0.0229211
0.0654,579.679,0.00351159,0.0229211
0.0655,579.679,0.00350929,0.0229211
0.0656,579.679,0.003507,0.0229211
0.0657,579.679,0.00350471,0.0229211
0.0658,579.679,0.00350242,0.0229211
0.0659,579.679,0.00350012,0.0229211
0.066,579.679,0.00349783,0.0229211
0.0661,579.679,0.00349554,0.0229211
0.0662,579.679,0.00349325,0.0229211
0.0663,579.679,0.00349096,0.0229211
0.0664,579.678,0.00348866,0.0229211
0.0665,579.678,0.00348637,0.0229211
0.0666,579.678,0.00348408,0.0229211
0.0667,579.678,0.00348179,0.0229211
0.0668,579.678,0.0034795,0.0229211
0.0669,579.678,0.0034772,0.0229211
0.067,579.678,0.00347491,0.0229211
0.0671,579.678,0.00347262,0.0229212
0.0672,579.678,0.00347033,0.0229212
0.0673,579.678,0.00346804,0.0229212
0.0674,579.678,0.00346574,0.0229212
0.0675,579.678,0.00346345,0.0229212
0.0676,579.678,0.00346116,0.0229212
0.0677,579.678,0.00345887,0.0229212
0.0678,579.678,0.00345657,0.0229212
0.0679,579.678,0.00345428,0.0229212
0.068,579.678,0.00345199,0.0229212
0.0681,579.678,0.0034497,0.0229212
0.0682,579.678,0.00344741,0.0229212
0.0683,579.678,0.00344511,0.0229212
0.0684,579.678,0.00344282,0.0229212
0.0685,579.678,0.00344053,0.0229212
0.0686,579.678,0.00343824,0.0229212
0.0687,579.678,0.00343595,0.0229212
0.0688,579.678,0.00343365,0.0229212
0.0689,579.678,0.00343136,0.0229212
0.069,579.678,0.00342907,0.0229212
0.0691,579.678,0.00342678,0.0229212
0.0692,579.678,0.00342449,0.0229212
0.0693,579.678,0.00342219,0.0229212
0.0694,579.678,0.0034199,0.0229212
0.0695,579.678,0.00341761,0.0229213
0.0696,579.677,0.00341532,0.0229213
0.0697,579.677,0.00341302,0.0229213
0.0698,579.677,0.00341073,0.0229213
0.0699,579.677,0.00340844,0.0229213
0.07,579.677,0.00340615,0.0229213
0.0701,579.677,0.00340386,0.0229213
0.0702,579.677,0.00340156,0.0229213
0.0703,579.677,0.00339927,0.0229213
0.0704,579.677,0.00339698,0.0229213
0.0705,579.677,0.00339469,0.0229213
0.0706,579.677,0.0033924,0.0229213
0.0707,579.677,0.0033901,0.0229213
0.0708,579.677,0.00338781,0.0229213
0.0709,579.677,0.00338552,0.0229213
0.071,579.677,0.00338323,0.0229213
0.0711,579.677,0.00338094,0.0229213
0.0712,579.677,0.00337864,0.0229213
0.0713,579.677,0.00337635,0.0229213
0.0714,579.677,0.00337406,0.0229213
0.0715,579.677,0.00337177,0.0229213
0.0716,579.677,0.00336947,0.0229213
0.0717,579.677,0.00336718,0.0229213
0.0718,579.677,0.00336489,0.0229213
0.0719,579.677,0.0033626,0.0229213
0.072,579.677,0.00336031,0.0229213
0.0721,579.677,0.00335801,0.0229213
0.0722,579.677,0.00335572,0.0229213
0.0723,579.677,0.00335343,0.0229213
0.0724,579.677,0.00335114,0.0229213
0.0725,579.677,0.00334885,0.0229213
0.0726,579.677,0.00334655,0.0229213
0.0727,579.677,0.00334426,0.0229213
0.0728,579.677,0.00334197,0.0229213
0.0729,579.677,0.00333968,0.0229213
0.073,579.677,0.00333738,0.0229213
0.0731,579.677,0.00333509,0.0229213
0.0732,579.677,0.0033328,0.0229213
0.0733,579.677,0.00333051,0.0229213
0.0734,579.677,0.00332822,0.0229213
0.0735,579.677,0.00332592,0.0229213
0.0736,579.677,0.00332363,0.0229213
0.0737,579.677,0.00332134,0.0229213
0.0738,579.677,0.00331905,0.0229213
0.0739,579.677,0.00331675,0.0229213
0.074,579.677,0.00331446,0.0229213
0.0741,579.677,0.00331217,0.0229213
0.0742,579.677,0.00330988,0.0229213
0.0743,579.676,0.00330759,0.0229213
0.0744,579.676,0.00330529,0.0229213
0.0745,579.676,0.003303,0.0229213
0.0746,579.676,0.00330071,0.0229213
0.0747,579.676,0.00329842,0.0229213
0.0748,579.676,0.00329613,0.0229213
0.0749,579.676,0.00329383,0.0229213
0.075,579.676,0.00329154,0.0229213
0.0751,579.676,0.00328925,0.0229213
0.0752,579.676,0.00328696,0.0229213
0.0753,579.676,0.00328467,0.0229213
0.0754,579.676,0.00328237,0.0229213
0.0755,579.676,0.00328008,0.0229213
0.0756,579.676,0.00327779,0.0229213
0.0757,579.676,0.0032755,0.0229213
0.0758,579.676,0.0032732,0.0229213
0.0759,579.676,0.00327091,0.0229213
0.076,579.676,0.00326862,0.0229213
0.0761,579.676,0.00326633,0.0229213
0.0762,579.676,0.00326404,0.0229213
0.0763,579.676,0.00326174,0.0229213
0.0764,579.676,0.00325945,0.0229213
0.0765,579.676,0.00325716,0.0229213
0.0766,579.676,0.00325487,0.0229213
0.0767,579.676,0.00325258,0.0229213
0.0768,579.676,0.00325028,0.0229213
0.0769,579.677,0.00324799,0.0229216
0.077,579.677,0.0032457,0.0229219
0.0771,579.677,0.00324341,0.0229222
0.0772,579.678,0.00324111,0.0229224
0.0773,579.678,0.00323882,0.0229227
0.0774,579.679,0.00323653,0.022923
0.0775,579.679,0.00323424,0.0229232
0.0776,579.679,0.00323195,0.0229234
0.0777,579.68,0.00322965,0.0229237
0.0778,579.68,0.00322736,0.0229239
0.0779,579.68,0.00322507,0.0229241
0.078,579.68,0.00322278,0.0229243
0.0781,579.681,0.00322048,0.0229245
0.0782,579.681,0.00321819,0.0229247
0.0783,579.681,0.0032159,0.0229249
0.0784,579.681,0.00321361,0.0229251
0.0785,579.681,0.00321131,0.0229253
0.0786,579.682,0.00320902,0.0229255
0.0787,579.682,0.00320673,0.0229257
0.0788,579.682,0.00320444,0.0229258
0.0789,579.682,0.00320214,0.022926
0.079,579.682,0.00319985,0.0229261
0.0791,579.682,0.00319756,0.0229263
0.0792,579.683,0.00319527,0.0229264
0.0793,579.683,0.00319297,0.0229266
0.0794,579.683,0.00319068,0.0229267
0.0795,579.683,0.00318839,0.0229268
0.0796,579.683,0.00318609,0.022927
0.0797,579.683,0.0031838,0.0229271
0.0798,579.683,0.00318151,0.0229272
0.0799,579.683,0.00317922,0.0229273
0.08,579.683,0.00317692,0.0229275
0.0801,579.683,0.00317463,0.0229276
0.0802,579.683,0.00317234,0.0229277
0.0803,579.683,0.00317005,0.0229278
0.0804,579.683,0.00316775,0.0229279
0.0805,579.683,0.00316546,0.022928
0.0806,579.683,0.00316317,0.0229281
0.0807,579.683,0.00316087,0.0229282
0.0808,579.684,0.00315858,0.0229283
0.0809,579.684,0.00315629,0.0229283
0.081,579.684,0.003154,0.0229284
0.0811,579.684,0.0031517,0.0229285
0.0812,579.684,0.00314941,0.0229286
0.0813,579.684,0.00314712,0.0229287
0.0814,579.684,0.00314482,0.0229287
0.0815,579.683,0.00314253,0.0229288
0.0816,579.683,0.00314024,0.0229289
0.0817,579.683,0.00313795,0.0229289
0.0818,579.683,0.00313565,0.022929
0.0819,579.683,0.00313336,0.0229291
0.082,579.683,0.00313107,0.0229291
0.0821,579.683,0.00312877,0.0229292
0.0822,579.683,0.00312648,0.0229293
0.0823,579.683,0.00312419,0.0229293
0.0824,579.683,0.0031219,0.0229294
0.0825,579.683,0.0031196,0.0229294
0.0826,579.683,0.00311731,0.0229295
0.0827,579.683,0.00311502,0.0229295
0.0828,579.683,0.00311272,0.0229296
0.0829,579.683,0.00311043,0.0229296
0.083,579.683,0.00310814,0.0229297
0.0831,579.683,0.00310585,0.0229297
0.0832,579.683,0.00310355,0.0229297
0.0833,579.683,0.00310126,0.0229298
0.0834,579.683,0.00309897,0.0229298
0.0835,579.683,0.00309667,0.0229299
0.0836,579.683,0.00309438,0.0229299
0.0837,579.683,0.00309209,0.0229299
0.0838,579.683,0.00308979,0.02293
0.0839,579.682,0.0030875,0.02293
0.084,579.682,0.00308521,0.02293
0.0841,579.682,0.00308292,0.0229301
0.0842,579.682,0.00308062,0.0229301
0.0843,579.682,0.00307833,0.0229301
0.0844,579.682,0.00307604,0.0229302
0.0845,579.682,0.00307374,0.0229302
0.0846,579.682,0.00307145,0.0229302
0.0847,579.682,0.00306916,0.0229302
0.0848,579.682,0.00306686,0.0229303
0.0849,579.682,0.00306457,0.0229303
0.085,579.682,0.00306228,0.0229303
0.0851,579.682,0.00305998,0.0229303
0.0852,579.682,0.00305769,0.0229304
0.0853,579.682,0.0030554,0.0229304
0.0854,579.681,0.00305311,0.0229304
0.0855,579.681,0.00305081,0.0229304
0.0856,579.681,0.00304852,0.0229305
0.0857,579.681,0.00304623,0.0229305
0.0858,579.681,0.00304393,0.0229305
0.0859,579.681,0.00304164,0.0229305
0.086,579.681,0.00303935,0.0229305
0.0861,579.681,0.00303705,0.0229305
0.0862,579.681,0.00303476,0.0229306
0.0863,579.681,0.00303247,0.0229306
0.0864,579.681,0.00303018,0.0229306
0.0865,579.681,0.00302788,0.0229306
0.0866,579.681,0.00302559,0.0229306
0.0867,579.681,0.0030233,0.0229306
0.0868,579.681,0.003021,0.0229307
0.0869,579.68,0.00301871,0.0229307
0.087,579.68,0.00301642,0.0229307
0.0871,579.68,0.00301412,0.0229307
0.0872,579.68,0.00301183,0.0229307
0.0873,579.68,0.00300954,0.0229307
0.0874,579.68,0.00300724,0.0229307
0.0875,579.68,0.00300495,0.0229307
0.0876,579.68,0.00300266,0.0229308
0.0877,579.68,0.00300037,0.0229308
0.0878,579.68,0.00299807,0.0229309
0.0879,579.68,0.00299578,0.022931
0.088,579.68,0.00299349,0.0229312
0.0881,579.681,0.00299119,0.0229313
0.0882,579.681,0.0029889,0.0229314
0.0883,579.681,0.00298661,0.0229315
0.0884,579.681,0.00298431,0.0229316
0.0885,579.681,0.00298202,0.0229318
0.0886,579.681,0.00297973,0.0229319
0.0887,579.681,0.00297743,0.022932
0.0888,579.681,0.00297514,0.0229321
0.0889,579.681,0.00297285,0.0229322
0.089,579.682,0.00297055,0.0229323
0.0891,579.682,0.00296826,0.0229324
0.0892,579.682,0.00296597,0.0229325
0.0893,579.682,0.00296367,0.0229325
0.0894,579.682,0.00296138,0.0229326
0.0895,579.682,0.00295909,0.0229327
0.0896,579.682,0.00295679,0.0229328
0.0897,579.682,0.0029545,0.0229329
0.0898,579.682,0.00295221,0.0229329
0.0899,579.682,0.00294992,0.022933
0.09,579.682,0.00294762,0.0229331
0.0901,579.682,0.00294533,0.0229332
0.0902,579.682,0.00294304,0.0229332
0.0903,579.682,0.00294074,0.0229333
0.0904,579.682,0.00293845,0.0229334
0.0905,579.682,0.00293616,0.0229334
0.0906,579.682,0.00293386,0.0229335
0.0907,579.682,0.00293157,0.0229335
0.0908,579.682,0.00292928,0.0229336
0.0909,579.682,0.00292698,0.0229336
0.091,579.682,0.00292469,0.0229337
0.0911,579.682,0.0029224,0.0229337
0.0912,579.682,0.0029201,0.0229338
0.0913,579.682,0.00291781,0.0229338
0.0914,579.682,0.00291551,0.0229339
0.0915,579.682,0.00291322,0.0229339
0.0916,579.682,0.00291093,0.022934
0.0917,579.682,0.00290863,0.022934
0.0918,579.682,0.00290634,0.0229341
0.0919,579.682,0.00290405,0.0229341
0.092,579.682,0.00290175,0.0229341
0.0921,579.682,0.00289946,0.0229342
0.0922,579.682,0.00289717,0.0229342
0.0923,579.682,0.00289487,0.0229342
0.0924,579.682,0.00289258,0.0229343
0.0925,579.682,0.00289029,0.0229343
0.0926,579.682,0.00288799,0.0229343
0.0927,579.682,0.0028857,0.0229344
0.0928,579.682,0.00288341,0.0229344
0.0929,579.682,0.00288111,0.0229344
0.093,579.682,0.00287882,0.0229345
0.0931,579.682,0.00287653,0.0229345
0.0932,579.682,0.00287423,0.0229345
0.0933,579.682,0.00287194,0.0229345
0.0934,579.682,0.00286965,0.0229346
0.0935,579.682,0.00286735,0.0229346
0.0936,579.682,0.00286506,0.0229346
0.0937,579.682,0.00286277,0.0229346
0.0938,579.682,0.00286047,0.0229347
0.0939,579.682,0.00285818,0.0229347
0.094,579.681,0.00285588,0.0229347
0.0941,579.681,0.00285359,0.0229347
0.0942,579.681,0.0028513,0.0229347
0.0943,579.681,0.002849,0.0229348
0.0944,579.681,0.00284671,0.0229348
0.0945,579.681,0.00284442,0.0229348
0.0946,579.681,0.00284212,0.0229348
0.0947,579.681,0.00283983,0.0229348
0.0948,579.681,0.00283754,0.0229348
0.0949,579.681,0.00283524,0.0229349
0.095,579.681,0.00283295,0.0229349
0.0951,579.681,0.00283066,0.0229349
0.0952,579.681,0.00282836,0.0229349
0.0953,579.681,0.00282607,0.0229349
0.0954,579.681,0.00282378,0.0229349
0.0955,579.681,0.00282148,0.0229349
0.0956,579.681,0.00281919,0.022935
0.0957,579.681,0.0028169,0.022935
0.0958,579.681,0.0028146,0.022935
0.0959,579.681,0.00281231,0.022935
0.096,579.681,0.00281002,0.022935
0.0961,579.681,0.00280772,0.022935
0.0962,579.681,0.00280543,0.022935
0.0963,579.68,0.00280314,0.022935
0.0964,579.68,0.00280084,0.022935
0.0965,579.68,0.00279855,0.022935
0.0966,579.68,0.00279626,0.0229351
0.0967,579.68,0.00279396,0.0229351
0.0968,579.68,0.00279167,0.0229351
0.0969,579.68,0.00278937,0.0229351
0.097,579.68,0.00278708,0.0229351
0.0971,579.68,0.00278479,0.0229351
0.0972,579.68,0.00278249,0.0229351
0.0973,579.68,0.0027802,0.0229351
0.0974,579.68,0.00277791,0.0229351
0.0975,579.68,0.00277561,0.0229351
0.0976,579.68,0.00277332,0.0229351
0.0977,579.68,0.00277103,0.0229351
0.0978,579.68,0.00276873,0.0229352
0.0979,579.68,0.00276644,0.0229352
0.098,579.68,0.00276415,0.0229352
0.0981,579.68,0.00276185,0.0229352
0.0982,579.68,0.00275956,0.0229352
0.0983,579.68,0.00275727,0.0229352
0.0984,579.68,0.00275497,0.0229352
0.0985,579.68,0.00275268,0.0229352
0.0986,579.68,0.00275039,0.0229352
0.0987,579.681,0.00274809,0.0229364
0.0988,579.684,0.0027458,0.0229378
0.0989,579.686,0.0027435,0.0229392
0.099,579.688,0.00274121,0.0229406
0.0991,579.69,0.00273891,0.0229419
0.0992,579.691,0.00273662,0.0229431
0.0993,579.693,0.00273433,0.0229443
0.0994,579.695,0.00273203,0.0229455
0.0995,579.696,0.00272974,0.0229467
0.0996,579.698,0.00272744,0.0229478
0.0997,579.699,0.00272515,0.0229489
0.0998,579.7,0.00272285,0.0229499
0.0999,579.702,0.00272056,0.0229509
0.1,579.703,0.00271826,0.0229519
