Date [s],Average:Temperature [K]
0,363.15
0.01,363.071
0.02,363.064
0.03,363.057
0.04,363.048
0.05,363.037
0.06,363.025
0.07,363.013
0.08,362.999
0.09,362.984
0.1,362.968
0.11,362.951
0.12,362.933
0.13,362.914
0.14,362.894
0.15,362.873
0.16,362.852
0.17,362.83
0.18,362.807
0.19,362.785
0.2,362.763
0.21,362.741
0.22,362.72
0.23,362.7
0.24,362.68
0.25,362.661
0.26,362.629
0.27,362.542
0.28,362.474
0.29,362.426
0.3,362.39
0.31,362.361
0.32,362.336
0.33,362.314
0.34,362.295
0.35,362.276
0.36,362.259
0.37,362.241
0.38,362.223
0.39,362.204
0.4,362.184
0.41,362.162
0.42,362.144
0.43,362.137
0.44,362.156
0.45,362.15
0.46,362.129
0.47,362.108
0.48,362.086
0.49,362.064
0.5,362.042
0.51,362.02
0.52,361.999
0.53,361.979
0.54,361.958
0.55,361.938
0.56,361.919
0.57,361.9
0.58,361.883
0.59,361.865
0.6,361.848
0.61,361.83
0.62,361.813
0.63,361.796
0.64,361.779
0.65,361.762
0.66,361.746
0.67,361.729
0.68,361.712
0.69,361.695
0.7,361.677
0.71,361.659
0.72,361.64
0.73,361.621
0.74,361.603
0.75,361.585
0.76,361.567
0.77,361.549
0.78,361.531
0.79,361.513
0.8,361.494
0.81,361.477
0.82,361.459
0.83,361.441
0.84,361.423
0.85,361.405
0.86,361.387
0.87,361.37
0.88,361.352
0.89,361.335
0.9,361.317
0.91,361.299
0.92,361.28
0.93,361.261
0.94,361.242
0.95,361.224
0.96,361.207
0.97,361.191
0.98,361.175
0.99,361.159
1,361.143
1.01,361.126
1.02,361.108
1.03,361.089
1.04,361.07
1.05,361.049
1.06,361.028
1.07,361.006
1.08,360.984
1.09,360.963
1.1,360.943
1.11,360.922
1.12,360.902
1.13,360.883
1.14,360.863
1.15,360.844
1.16,360.827
1.17,360.809
1.18,360.793
1.19,360.776
1.2,360.759
1.21,360.741
1.22,360.723
1.23,360.705
1.24,360.688
1.25,360.671
1.26,360.654
1.27,360.636
1.28,360.618
1.29,360.6
1.3,360.58
1.31,360.56
1.32,360.54
1.33,360.52
1.34,360.499
1.35,360.48
1.36,360.462
1.37,360.446
1.38,360.431
1.39,360.416
1.4,360.401
1.41,360.385
1.42,360.369
1.43,360.352
1.44,360.335
1.45,360.317
1.46,360.299
1.47,360.28
1.48,360.262
1.49,360.243
1.5,360.225
1.51,360.206
1.52,360.188
1.53,360.17
1.54,360.154
1.55,360.138
1.56,360.124
1.57,360.109
1.58,360.093
1.59,360.077
1.6,360.06
1.61,360.043
1.62,360.025
1.63,360.008
1.64,359.99
1.65,359.972
1.66,359.953
1.67,359.934
1.68,359.914
1.69,359.896
1.7,359.879
1.71,359.864
1.72,359.849
1.73,359.834
1.74,359.819
1.75,359.802
1.76,359.785
1.77,359.767
1.78,359.749
1.79,359.731
1.8,359.712
1.81,359.693
1.82,359.672
1.83,359.652
1.84,359.632
1.85,359.614
1.86,359.599
1.87,359.584
1.88,359.57
1.89,359.555
1.9,359.539
1.91,359.522
1.92,359.505
1.93,359.487
1.94,359.468
1.95,359.45
1.96,359.431
1.97,359.413
1.98,359.396
1.99,359.379
2,359.364
2.01,359.35
2.02,359.335
2.03,359.319
2.04,359.302
2.05,359.284
2.06,359.266
2.07,359.246
2.08,359.225
2.09,359.204
2.1,359.183
2.11,359.162
2.12,359.143
2.13,359.125
2.14,359.11
2.15,359.097
2.16,359.084
2.17,359.071
2.18,359.057
2.19,359.041
2.2,359.025
2.21,359.008
2.22,358.989
2.23,358.97
2.24,358.95
2.25,358.93
2.26,358.911
2.27,358.894
2.28,358.879
2.29,358.865
2.3,358.851
2.31,358.836
2.32,358.821
2.33,358.804
2.34,358.786
2.35,358.769
2.36,358.751
2.37,358.734
2.38,358.716
2.39,358.697
2.4,358.678
2.41,358.659
2.42,358.641
2.43,358.624
2.44,358.608
2.45,358.593
2.46,358.578
2.47,358.563
2.48,358.546
2.49,358.529
2.5,358.511
2.51,358.493
2.52,358.474
2.53,358.457
2.54,358.443
2.55,358.429
2.56,358.416
2.57,358.401
2.58,358.386
2.59,358.369
2.6,358.352
2.61,358.334
2.62,358.315
2.63,358.295
2.64,358.276
2.65,358.257
2.66,358.24
2.67,358.225
2.68,358.211
2.69,358.197
2.7,358.182
2.71,358.166
2.72,358.148
2.73,358.131
2.74,358.113
2.75,358.096
2.76,358.079
2.77,358.062
2.78,358.046
2.79,358.03
2.8,358.015
2.81,357.999
2.82,357.983
2.83,357.966
2.84,357.949
2.85,357.933
2.86,357.917
2.87,357.901
2.88,357.884
2.89,357.867
2.9,357.85
2.91,357.832
2.92,357.814
2.93,357.795
2.94,357.776
2.95,357.758
2.96,357.74
2.97,357.722
2.98,357.704
2.99,357.686
3,357.669
3.01,357.652
3.02,357.635
3.03,357.62
3.04,357.604
3.05,357.588
3.06,357.571
3.07,357.554
3.08,357.537
3.09,357.519
3.1,357.5
3.11,357.481
3.12,357.462
3.13,357.442
3.14,357.424
3.15,357.406
3.16,357.389
3.17,357.373
3.18,357.358
3.19,357.343
3.2,357.327
3.21,357.311
3.22,357.294
3.23,357.276
3.24,357.257
3.25,357.239
3.26,357.221
3.27,357.203
3.28,357.185
3.29,357.168
3.3,357.152
3.31,357.135
3.32,357.118
3.33,357.102
3.34,357.085
3.35,357.068
3.36,357.051
3.37,357.035
3.38,357.018
3.39,357.003
3.4,356.987
3.41,356.971
3.42,356.955
3.43,356.939
3.44,356.922
3.45,356.904
3.46,356.886
3.47,356.868
3.48,356.849
3.49,356.83
3.5,356.811
3.51,356.792
3.52,356.775
3.53,356.759
3.54,356.745
3.55,356.73
3.56,356.715
3.57,356.7
3.58,356.683
3.59,356.667
3.6,356.65
3.61,356.633
3.62,356.616
3.63,356.598
3.64,356.581
3.65,356.563
3.66,356.546
3.67,356.53
3.68,356.515
3.69,356.501
3.7,356.487
3.71,356.472
3.72,356.456
3.73,356.439
3.74,356.421
3.75,356.403
3.76,356.384
3.77,356.367
3.78,356.349
3.79,356.333
3.8,356.317
3.81,356.301
3.82,356.285
3.83,356.269
3.84,356.253
3.85,356.237
3.86,356.219
3.87,356.202
3.88,356.183
3.89,356.164
3.9,356.145
3.91,356.127
3.92,356.109
3.93,356.092
3.94,356.076
3.95,356.06
3.96,356.046
3.97,356.031
3.98,356.017
3.99,356.002
4,355.985
4.01,355.968
4.02,355.95
4.03,355.932
4.04,355.914
4.05,355.897
4.06,355.881
4.07,355.865
4.08,355.849
4.09,355.833
4.1,355.817
4.11,355.8
4.12,355.783
4.13,355.766
4.14,355.749
4.15,355.731
4.16,355.714
4.17,355.696
4.18,355.679
4.19,355.662
4.2,355.646
4.21,355.629
4.22,355.613
